Создан как новый массив данных;Образец 009 полученный BalashovM Дата среда, апреля 28 2021
cm-1;A
4000,00;0,0163
3999,00;0,0163
3998,00;0,0163
3997,00;0,0163
3996,00;0,0163
3995,00;0,0163
3994,00;0,0163
3993,00;0,0163
3992,00;0,0163
3991,00;0,0163
3990,00;0,0163
3989,00;0,0163
3988,00;0,0163
3987,00;0,0163
3986,00;0,0163
3985,00;0,0163
3984,00;0,0163
3983,00;0,0163
3982,00;0,0163
3981,00;0,0163
3980,00;0,0163
3979,00;0,0163
3978,00;0,0163
3977,00;0,0163
3976,00;0,0163
3975,00;0,0164
3974,00;0,0164
3973,00;0,0164
3972,00;0,0164
3971,00;0,0163
3970,00;0,0163
3969,00;0,0163
3968,00;0,0164
3967,00;0,0164
3966,00;0,0164
3965,00;0,0164
3964,00;0,0164
3963,00;0,0164
3962,00;0,0164
3961,00;0,0164
3960,00;0,0164
3959,00;0,0164
3958,00;0,0164
3957,00;0,0164
3956,00;0,0164
3955,00;0,0164
3954,00;0,0164
3953,00;0,0164
3952,00;0,0164
3951,00;0,0164
3950,00;0,0164
3949,00;0,0164
3948,00;0,0164
3947,00;0,0164
3946,00;0,0164
3945,00;0,0164
3944,00;0,0164
3943,00;0,0164
3942,00;0,0164
3941,00;0,0164
3940,00;0,0164
3939,00;0,0164
3938,00;0,0164
3937,00;0,0164
3936,00;0,0164
3935,00;0,0164
3934,00;0,0164
3933,00;0,0164
3932,00;0,0164
3931,00;0,0164
3930,00;0,0164
3929,00;0,0164
3928,00;0,0165
3927,00;0,0165
3926,00;0,0165
3925,00;0,0165
3924,00;0,0165
3923,00;0,0165
3922,00;0,0165
3921,00;0,0165
3920,00;0,0165
3919,00;0,0165
3918,00;0,0165
3917,00;0,0165
3916,00;0,0165
3915,00;0,0165
3914,00;0,0165
3913,00;0,0165
3912,00;0,0165
3911,00;0,0165
3910,00;0,0165
3909,00;0,0165
3908,00;0,0165
3907,00;0,0165
3906,00;0,0165
3905,00;0,0165
3904,00;0,0165
3903,00;0,0165
3902,00;0,0165
3901,00;0,0165
3900,00;0,0165
3899,00;0,0165
3898,00;0,0165
3897,00;0,0165
3896,00;0,0165
3895,00;0,0165
3894,00;0,0165
3893,00;0,0165
3892,00;0,0165
3891,00;0,0165
3890,00;0,0165
3889,00;0,0165
3888,00;0,0165
3887,00;0,0165
3886,00;0,0165
3885,00;0,0165
3884,00;0,0165
3883,00;0,0165
3882,00;0,0165
3881,00;0,0165
3880,00;0,0165
3879,00;0,0165
3878,00;0,0165
3877,00;0,0165
3876,00;0,0165
3875,00;0,0165
3874,00;0,0165
3873,00;0,0165
3872,00;0,0165
3871,00;0,0165
3870,00;0,0165
3869,00;0,0165
3868,00;0,0165
3867,00;0,0165
3866,00;0,0165
3865,00;0,0165
3864,00;0,0165
3863,00;0,0165
3862,00;0,0165
3861,00;0,0165
3860,00;0,0165
3859,00;0,0165
3858,00;0,0165
3857,00;0,0165
3856,00;0,0165
3855,00;0,0164
3854,00;0,0164
3853,00;0,0164
3852,00;0,0165
3851,00;0,0165
3850,00;0,0165
3849,00;0,0165
3848,00;0,0165
3847,00;0,0166
3846,00;0,0166
3845,00;0,0166
3844,00;0,0165
3843,00;0,0165
3842,00;0,0165
3841,00;0,0165
3840,00;0,0165
3839,00;0,0165
3838,00;0,0165
3837,00;0,0165
3836,00;0,0165
3835,00;0,0165
3834,00;0,0165
3833,00;0,0165
3832,00;0,0165
3831,00;0,0165
3830,00;0,0165
3829,00;0,0165
3828,00;0,0165
3827,00;0,0165
3826,00;0,0165
3825,00;0,0165
3824,00;0,0165
3823,00;0,0165
3822,00;0,0165
3821,00;0,0165
3820,00;0,0165
3819,00;0,0165
3818,00;0,0165
3817,00;0,0165
3816,00;0,0165
3815,00;0,0165
3814,00;0,0165
3813,00;0,0165
3812,00;0,0165
3811,00;0,0165
3810,00;0,0165
3809,00;0,0165
3808,00;0,0165
3807,00;0,0165
3806,00;0,0165
3805,00;0,0165
3804,00;0,0165
3803,00;0,0165
3802,00;0,0165
3801,00;0,0165
3800,00;0,0165
3799,00;0,0165
3798,00;0,0165
3797,00;0,0165
3796,00;0,0165
3795,00;0,0165
3794,00;0,0165
3793,00;0,0165
3792,00;0,0165
3791,00;0,0165
3790,00;0,0165
3789,00;0,0165
3788,00;0,0165
3787,00;0,0165
3786,00;0,0164
3785,00;0,0164
3784,00;0,0164
3783,00;0,0164
3782,00;0,0164
3781,00;0,0165
3780,00;0,0165
3779,00;0,0165
3778,00;0,0165
3777,00;0,0165
3776,00;0,0165
3775,00;0,0165
3774,00;0,0164
3773,00;0,0164
3772,00;0,0164
3771,00;0,0164
3770,00;0,0164
3769,00;0,0164
3768,00;0,0164
3767,00;0,0165
3766,00;0,0165
3765,00;0,0165
3764,00;0,0165
3763,00;0,0165
3762,00;0,0165
3761,00;0,0165
3760,00;0,0165
3759,00;0,0165
3758,00;0,0164
3757,00;0,0164
3756,00;0,0164
3755,00;0,0164
3754,00;0,0164
3753,00;0,0164
3752,00;0,0164
3751,00;0,0164
3750,00;0,0165
3749,00;0,0165
3748,00;0,0165
3747,00;0,0165
3746,00;0,0165
3745,00;0,0165
3744,00;0,0165
3743,00;0,0165
3742,00;0,0165
3741,00;0,0165
3740,00;0,0165
3739,00;0,0165
3738,00;0,0165
3737,00;0,0165
3736,00;0,0165
3735,00;0,0165
3734,00;0,0165
3733,00;0,0165
3732,00;0,0165
3731,00;0,0165
3730,00;0,0164
3729,00;0,0164
3728,00;0,0164
3727,00;0,0164
3726,00;0,0164
3725,00;0,0164
3724,00;0,0164
3723,00;0,0164
3722,00;0,0164
3721,00;0,0164
3720,00;0,0164
3719,00;0,0164
3718,00;0,0164
3717,00;0,0163
3716,00;0,0163
3715,00;0,0163
3714,00;0,0163
3713,00;0,0163
3712,00;0,0163
3711,00;0,0163
3710,00;0,0163
3709,00;0,0163
3708,00;0,0163
3707,00;0,0163
3706,00;0,0163
3705,00;0,0163
3704,00;0,0163
3703,00;0,0163
3702,00;0,0163
3701,00;0,0163
3700,00;0,0163
3699,00;0,0163
3698,00;0,0163
3697,00;0,0163
3696,00;0,0163
3695,00;0,0163
3694,00;0,0163
3693,00;0,0163
3692,00;0,0163
3691,00;0,0163
3690,00;0,0163
3689,00;0,0163
3688,00;0,0163
3687,00;0,0163
3686,00;0,0163
3685,00;0,0163
3684,00;0,0163
3683,00;0,0163
3682,00;0,0163
3681,00;0,0163
3680,00;0,0163
3679,00;0,0163
3678,00;0,0163
3677,00;0,0163
3676,00;0,0163
3675,00;0,0163
3674,00;0,0163
3673,00;0,0163
3672,00;0,0163
3671,00;0,0163
3670,00;0,0163
3669,00;0,0163
3668,00;0,0163
3667,00;0,0163
3666,00;0,0163
3665,00;0,0163
3664,00;0,0163
3663,00;0,0163
3662,00;0,0163
3661,00;0,0163
3660,00;0,0163
3659,00;0,0163
3658,00;0,0163
3657,00;0,0163
3656,00;0,0163
3655,00;0,0163
3654,00;0,0163
3653,00;0,0163
3652,00;0,0163
3651,00;0,0163
3650,00;0,0163
3649,00;0,0163
3648,00;0,0164
3647,00;0,0164
3646,00;0,0164
3645,00;0,0164
3644,00;0,0165
3643,00;0,0165
3642,00;0,0165
3641,00;0,0165
3640,00;0,0164
3639,00;0,0165
3638,00;0,0165
3637,00;0,0165
3636,00;0,0165
3635,00;0,0166
3634,00;0,0166
3633,00;0,0166
3632,00;0,0166
3631,00;0,0166
3630,00;0,0167
3629,00;0,0167
3628,00;0,0167
3627,00;0,0167
3626,00;0,0168
3625,00;0,0168
3624,00;0,0168
3623,00;0,0168
3622,00;0,0168
3621,00;0,0168
3620,00;0,0168
3619,00;0,0169
3618,00;0,0169
3617,00;0,0170
3616,00;0,0170
3615,00;0,0170
3614,00;0,0171
3613,00;0,0171
3612,00;0,0171
3611,00;0,0172
3610,00;0,0172
3609,00;0,0173
3608,00;0,0173
3607,00;0,0173
3606,00;0,0174
3605,00;0,0174
3604,00;0,0174
3603,00;0,0175
3602,00;0,0175
3601,00;0,0175
3600,00;0,0176
3599,00;0,0176
3598,00;0,0176
3597,00;0,0177
3596,00;0,0177
3595,00;0,0178
3594,00;0,0178
3593,00;0,0179
3592,00;0,0179
3591,00;0,0180
3590,00;0,0180
3589,00;0,0181
3588,00;0,0181
3587,00;0,0182
3586,00;0,0182
3585,00;0,0182
3584,00;0,0183
3583,00;0,0183
3582,00;0,0184
3581,00;0,0184
3580,00;0,0185
3579,00;0,0185
3578,00;0,0186
3577,00;0,0186
3576,00;0,0186
3575,00;0,0187
3574,00;0,0187
3573,00;0,0188
3572,00;0,0188
3571,00;0,0189
3570,00;0,0189
3569,00;0,0190
3568,00;0,0190
3567,00;0,0191
3566,00;0,0191
3565,00;0,0192
3564,00;0,0192
3563,00;0,0193
3562,00;0,0193
3561,00;0,0194
3560,00;0,0194
3559,00;0,0194
3558,00;0,0195
3557,00;0,0195
3556,00;0,0196
3555,00;0,0196
3554,00;0,0197
3553,00;0,0197
3552,00;0,0198
3551,00;0,0199
3550,00;0,0199
3549,00;0,0200
3548,00;0,0200
3547,00;0,0201
3546,00;0,0202
3545,00;0,0202
3544,00;0,0202
3543,00;0,0203
3542,00;0,0203
3541,00;0,0203
3540,00;0,0204
3539,00;0,0204
3538,00;0,0205
3537,00;0,0205
3536,00;0,0205
3535,00;0,0206
3534,00;0,0206
3533,00;0,0207
3532,00;0,0207
3531,00;0,0208
3530,00;0,0208
3529,00;0,0209
3528,00;0,0209
3527,00;0,0210
3526,00;0,0210
3525,00;0,0211
3524,00;0,0211
3523,00;0,0212
3522,00;0,0212
3521,00;0,0212
3520,00;0,0213
3519,00;0,0213
3518,00;0,0213
3517,00;0,0213
3516,00;0,0214
3515,00;0,0214
3514,00;0,0215
3513,00;0,0215
3512,00;0,0215
3511,00;0,0216
3510,00;0,0216
3509,00;0,0217
3508,00;0,0217
3507,00;0,0217
3506,00;0,0218
3505,00;0,0218
3504,00;0,0219
3503,00;0,0219
3502,00;0,0219
3501,00;0,0220
3500,00;0,0220
3499,00;0,0220
3498,00;0,0221
3497,00;0,0221
3496,00;0,0221
3495,00;0,0221
3494,00;0,0222
3493,00;0,0222
3492,00;0,0222
3491,00;0,0223
3490,00;0,0223
3489,00;0,0223
3488,00;0,0223
3487,00;0,0224
3486,00;0,0224
3485,00;0,0225
3484,00;0,0225
3483,00;0,0225
3482,00;0,0226
3481,00;0,0226
3480,00;0,0226
3479,00;0,0227
3478,00;0,0227
3477,00;0,0227
3476,00;0,0227
3475,00;0,0228
3474,00;0,0228
3473,00;0,0228
3472,00;0,0229
3471,00;0,0229
3470,00;0,0229
3469,00;0,0229
3468,00;0,0230
3467,00;0,0230
3466,00;0,0230
3465,00;0,0230
3464,00;0,0231
3463,00;0,0231
3462,00;0,0231
3461,00;0,0232
3460,00;0,0232
3459,00;0,0232
3458,00;0,0232
3457,00;0,0233
3456,00;0,0233
3455,00;0,0233
3454,00;0,0233
3453,00;0,0234
3452,00;0,0234
3451,00;0,0234
3450,00;0,0234
3449,00;0,0234
3448,00;0,0235
3447,00;0,0235
3446,00;0,0235
3445,00;0,0235
3444,00;0,0235
3443,00;0,0236
3442,00;0,0236
3441,00;0,0236
3440,00;0,0236
3439,00;0,0237
3438,00;0,0237
3437,00;0,0237
3436,00;0,0237
3435,00;0,0237
3434,00;0,0238
3433,00;0,0238
3432,00;0,0238
3431,00;0,0238
3430,00;0,0238
3429,00;0,0239
3428,00;0,0239
3427,00;0,0239
3426,00;0,0239
3425,00;0,0239
3424,00;0,0240
3423,00;0,0240
3422,00;0,0240
3421,00;0,0240
3420,00;0,0241
3419,00;0,0241
3418,00;0,0241
3417,00;0,0241
3416,00;0,0241
3415,00;0,0242
3414,00;0,0242
3413,00;0,0242
3412,00;0,0242
3411,00;0,0242
3410,00;0,0242
3409,00;0,0243
3408,00;0,0243
3407,00;0,0243
3406,00;0,0243
3405,00;0,0244
3404,00;0,0244
3403,00;0,0244
3402,00;0,0244
3401,00;0,0244
3400,00;0,0245
3399,00;0,0245
3398,00;0,0245
3397,00;0,0245
3396,00;0,0245
3395,00;0,0245
3394,00;0,0246
3393,00;0,0246
3392,00;0,0246
3391,00;0,0246
3390,00;0,0246
3389,00;0,0247
3388,00;0,0247
3387,00;0,0247
3386,00;0,0247
3385,00;0,0247
3384,00;0,0247
3383,00;0,0247
3382,00;0,0248
3381,00;0,0248
3380,00;0,0248
3379,00;0,0248
3378,00;0,0248
3377,00;0,0248
3376,00;0,0248
3375,00;0,0248
3374,00;0,0248
3373,00;0,0248
3372,00;0,0248
3371,00;0,0249
3370,00;0,0249
3369,00;0,0249
3368,00;0,0249
3367,00;0,0249
3366,00;0,0249
3365,00;0,0249
3364,00;0,0249
3363,00;0,0249
3362,00;0,0249
3361,00;0,0249
3360,00;0,0250
3359,00;0,0250
3358,00;0,0250
3357,00;0,0250
3356,00;0,0250
3355,00;0,0250
3354,00;0,0250
3353,00;0,0250
3352,00;0,0250
3351,00;0,0250
3350,00;0,0250
3349,00;0,0251
3348,00;0,0251
3347,00;0,0251
3346,00;0,0251
3345,00;0,0251
3344,00;0,0251
3343,00;0,0251
3342,00;0,0251
3341,00;0,0251
3340,00;0,0251
3339,00;0,0251
3338,00;0,0252
3337,00;0,0252
3336,00;0,0252
3335,00;0,0252
3334,00;0,0252
3333,00;0,0252
3332,00;0,0252
3331,00;0,0252
3330,00;0,0252
3329,00;0,0252
3328,00;0,0252
3327,00;0,0252
3326,00;0,0252
3325,00;0,0252
3324,00;0,0252
3323,00;0,0252
3322,00;0,0252
3321,00;0,0253
3320,00;0,0253
3319,00;0,0253
3318,00;0,0253
3317,00;0,0253
3316,00;0,0253
3315,00;0,0253
3314,00;0,0253
3313,00;0,0253
3312,00;0,0254
3311,00;0,0254
3310,00;0,0254
3309,00;0,0254
3308,00;0,0254
3307,00;0,0254
3306,00;0,0254
3305,00;0,0254
3304,00;0,0254
3303,00;0,0254
3302,00;0,0254
3301,00;0,0254
3300,00;0,0254
3299,00;0,0254
3298,00;0,0254
3297,00;0,0254
3296,00;0,0254
3295,00;0,0255
3294,00;0,0255
3293,00;0,0255
3292,00;0,0255
3291,00;0,0255
3290,00;0,0255
3289,00;0,0255
3288,00;0,0255
3287,00;0,0255
3286,00;0,0255
3285,00;0,0255
3284,00;0,0255
3283,00;0,0255
3282,00;0,0255
3281,00;0,0255
3280,00;0,0256
3279,00;0,0256
3278,00;0,0256
3277,00;0,0256
3276,00;0,0256
3275,00;0,0256
3274,00;0,0256
3273,00;0,0256
3272,00;0,0256
3271,00;0,0256
3270,00;0,0256
3269,00;0,0256
3268,00;0,0256
3267,00;0,0256
3266,00;0,0256
3265,00;0,0256
3264,00;0,0256
3263,00;0,0256
3262,00;0,0256
3261,00;0,0257
3260,00;0,0257
3259,00;0,0257
3258,00;0,0257
3257,00;0,0257
3256,00;0,0257
3255,00;0,0257
3254,00;0,0257
3253,00;0,0257
3252,00;0,0257
3251,00;0,0257
3250,00;0,0257
3249,00;0,0257
3248,00;0,0257
3247,00;0,0257
3246,00;0,0257
3245,00;0,0257
3244,00;0,0257
3243,00;0,0257
3242,00;0,0257
3241,00;0,0257
3240,00;0,0257
3239,00;0,0257
3238,00;0,0257
3237,00;0,0257
3236,00;0,0257
3235,00;0,0257
3234,00;0,0257
3233,00;0,0257
3232,00;0,0257
3231,00;0,0257
3230,00;0,0257
3229,00;0,0257
3228,00;0,0257
3227,00;0,0257
3226,00;0,0257
3225,00;0,0257
3224,00;0,0257
3223,00;0,0257
3222,00;0,0257
3221,00;0,0257
3220,00;0,0257
3219,00;0,0257
3218,00;0,0257
3217,00;0,0257
3216,00;0,0257
3215,00;0,0258
3214,00;0,0258
3213,00;0,0258
3212,00;0,0257
3211,00;0,0257
3210,00;0,0257
3209,00;0,0257
3208,00;0,0257
3207,00;0,0257
3206,00;0,0257
3205,00;0,0257
3204,00;0,0257
3203,00;0,0257
3202,00;0,0257
3201,00;0,0257
3200,00;0,0257
3199,00;0,0257
3198,00;0,0257
3197,00;0,0257
3196,00;0,0257
3195,00;0,0257
3194,00;0,0257
3193,00;0,0257
3192,00;0,0257
3191,00;0,0257
3190,00;0,0257
3189,00;0,0257
3188,00;0,0257
3187,00;0,0257
3186,00;0,0257
3185,00;0,0257
3184,00;0,0257
3183,00;0,0257
3182,00;0,0257
3181,00;0,0257
3180,00;0,0257
3179,00;0,0258
3178,00;0,0258
3177,00;0,0258
3176,00;0,0257
3175,00;0,0257
3174,00;0,0257
3173,00;0,0257
3172,00;0,0257
3171,00;0,0257
3170,00;0,0257
3169,00;0,0257
3168,00;0,0257
3167,00;0,0257
3166,00;0,0257
3165,00;0,0257
3164,00;0,0257
3163,00;0,0257
3162,00;0,0257
3161,00;0,0257
3160,00;0,0257
3159,00;0,0257
3158,00;0,0257
3157,00;0,0257
3156,00;0,0257
3155,00;0,0257
3154,00;0,0257
3153,00;0,0257
3152,00;0,0257
3151,00;0,0257
3150,00;0,0257
3149,00;0,0257
3148,00;0,0257
3147,00;0,0257
3146,00;0,0257
3145,00;0,0257
3144,00;0,0257
3143,00;0,0257
3142,00;0,0257
3141,00;0,0257
3140,00;0,0257
3139,00;0,0257
3138,00;0,0257
3137,00;0,0257
3136,00;0,0257
3135,00;0,0257
3134,00;0,0257
3133,00;0,0257
3132,00;0,0257
3131,00;0,0257
3130,00;0,0257
3129,00;0,0257
3128,00;0,0257
3127,00;0,0257
3126,00;0,0257
3125,00;0,0257
3124,00;0,0256
3123,00;0,0256
3122,00;0,0256
3121,00;0,0256
3120,00;0,0256
3119,00;0,0256
3118,00;0,0256
3117,00;0,0256
3116,00;0,0256
3115,00;0,0256
3114,00;0,0256
3113,00;0,0256
3112,00;0,0256
3111,00;0,0256
3110,00;0,0256
3109,00;0,0256
3108,00;0,0256
3107,00;0,0256
3106,00;0,0256
3105,00;0,0256
3104,00;0,0256
3103,00;0,0256
3102,00;0,0256
3101,00;0,0255
3100,00;0,0255
3099,00;0,0255
3098,00;0,0255
3097,00;0,0255
3096,00;0,0255
3095,00;0,0255
3094,00;0,0255
3093,00;0,0255
3092,00;0,0255
3091,00;0,0255
3090,00;0,0255
3089,00;0,0255
3088,00;0,0255
3087,00;0,0255
3086,00;0,0255
3085,00;0,0255
3084,00;0,0255
3083,00;0,0254
3082,00;0,0254
3081,00;0,0254
3080,00;0,0254
3079,00;0,0254
3078,00;0,0254
3077,00;0,0254
3076,00;0,0254
3075,00;0,0254
3074,00;0,0254
3073,00;0,0254
3072,00;0,0254
3071,00;0,0254
3070,00;0,0254
3069,00;0,0254
3068,00;0,0254
3067,00;0,0254
3066,00;0,0254
3065,00;0,0253
3064,00;0,0253
3063,00;0,0253
3062,00;0,0253
3061,00;0,0253
3060,00;0,0253
3059,00;0,0253
3058,00;0,0253
3057,00;0,0253
3056,00;0,0253
3055,00;0,0253
3054,00;0,0253
3053,00;0,0253
3052,00;0,0253
3051,00;0,0253
3050,00;0,0253
3049,00;0,0253
3048,00;0,0252
3047,00;0,0252
3046,00;0,0252
3045,00;0,0252
3044,00;0,0252
3043,00;0,0252
3042,00;0,0252
3041,00;0,0252
3040,00;0,0252
3039,00;0,0252
3038,00;0,0252
3037,00;0,0252
3036,00;0,0252
3035,00;0,0252
3034,00;0,0252
3033,00;0,0252
3032,00;0,0252
3031,00;0,0251
3030,00;0,0251
3029,00;0,0251
3028,00;0,0251
3027,00;0,0251
3026,00;0,0251
3025,00;0,0251
3024,00;0,0251
3023,00;0,0251
3022,00;0,0251
3021,00;0,0251
3020,00;0,0251
3019,00;0,0251
3018,00;0,0251
3017,00;0,0251
3016,00;0,0251
3015,00;0,0251
3014,00;0,0251
3013,00;0,0251
3012,00;0,0251
3011,00;0,0251
3010,00;0,0251
3009,00;0,0250
3008,00;0,0250
3007,00;0,0250
3006,00;0,0250
3005,00;0,0250
3004,00;0,0250
3003,00;0,0250
3002,00;0,0250
3001,00;0,0250
3000,00;0,0250
2999,00;0,0250
2998,00;0,0250
2997,00;0,0250
2996,00;0,0250
2995,00;0,0250
2994,00;0,0250
2993,00;0,0250
2992,00;0,0250
2991,00;0,0250
2990,00;0,0250
2989,00;0,0250
2988,00;0,0250
2987,00;0,0250
2986,00;0,0249
2985,00;0,0249
2984,00;0,0249
2983,00;0,0248
2982,00;0,0248
2981,00;0,0248
2980,00;0,0247
2979,00;0,0247
2978,00;0,0247
2977,00;0,0247
2976,00;0,0246
2975,00;0,0246
2974,00;0,0246
2973,00;0,0245
2972,00;0,0245
2971,00;0,0245
2970,00;0,0244
2969,00;0,0244
2968,00;0,0244
2967,00;0,0243
2966,00;0,0243
2965,00;0,0242
2964,00;0,0242
2963,00;0,0241
2962,00;0,0241
2961,00;0,0240
2960,00;0,0240
2959,00;0,0240
2958,00;0,0239
2957,00;0,0239
2956,00;0,0239
2955,00;0,0238
2954,00;0,0238
2953,00;0,0238
2952,00;0,0238
2951,00;0,0238
2950,00;0,0238
2949,00;0,0238
2948,00;0,0238
2947,00;0,0238
2946,00;0,0238
2945,00;0,0238
2944,00;0,0237
2943,00;0,0237
2942,00;0,0236
2941,00;0,0235
2940,00;0,0235
2939,00;0,0234
2938,00;0,0233
2937,00;0,0232
2936,00;0,0231
2935,00;0,0231
2934,00;0,0230
2933,00;0,0229
2932,00;0,0228
2931,00;0,0228
2930,00;0,0227
2929,00;0,0227
2928,00;0,0227
2927,00;0,0226
2926,00;0,0226
2925,00;0,0226
2924,00;0,0226
2923,00;0,0226
2922,00;0,0226
2921,00;0,0226
2920,00;0,0227
2919,00;0,0228
2918,00;0,0229
2917,00;0,0231
2916,00;0,0231
2915,00;0,0232
2914,00;0,0233
2913,00;0,0234
2912,00;0,0234
2911,00;0,0235
2910,00;0,0236
2909,00;0,0236
2908,00;0,0236
2907,00;0,0237
2906,00;0,0237
2905,00;0,0237
2904,00;0,0237
2903,00;0,0237
2902,00;0,0237
2901,00;0,0237
2900,00;0,0237
2899,00;0,0237
2898,00;0,0237
2897,00;0,0237
2896,00;0,0238
2895,00;0,0238
2894,00;0,0238
2893,00;0,0238
2892,00;0,0238
2891,00;0,0238
2890,00;0,0238
2889,00;0,0238
2888,00;0,0238
2887,00;0,0238
2886,00;0,0238
2885,00;0,0238
2884,00;0,0238
2883,00;0,0238
2882,00;0,0238
2881,00;0,0237
2880,00;0,0237
2879,00;0,0237
2878,00;0,0237
2877,00;0,0236
2876,00;0,0236
2875,00;0,0235
2874,00;0,0235
2873,00;0,0235
2872,00;0,0235
2871,00;0,0234
2870,00;0,0234
2869,00;0,0234
2868,00;0,0234
2867,00;0,0234
2866,00;0,0233
2865,00;0,0233
2864,00;0,0233
2863,00;0,0233
2862,00;0,0232
2861,00;0,0231
2860,00;0,0231
2859,00;0,0230
2858,00;0,0229
2857,00;0,0229
2856,00;0,0228
2855,00;0,0228
2854,00;0,0228
2853,00;0,0228
2852,00;0,0229
2851,00;0,0229
2850,00;0,0230
2849,00;0,0231
2848,00;0,0231
2847,00;0,0232
2846,00;0,0232
2845,00;0,0233
2844,00;0,0233
2843,00;0,0233
2842,00;0,0234
2841,00;0,0234
2840,00;0,0234
2839,00;0,0234
2838,00;0,0235
2837,00;0,0235
2836,00;0,0235
2835,00;0,0235
2834,00;0,0235
2833,00;0,0235
2832,00;0,0235
2831,00;0,0235
2830,00;0,0234
2829,00;0,0234
2828,00;0,0234
2827,00;0,0234
2826,00;0,0235
2825,00;0,0235
2824,00;0,0235
2823,00;0,0235
2822,00;0,0235
2821,00;0,0235
2820,00;0,0234
2819,00;0,0234
2818,00;0,0234
2817,00;0,0234
2816,00;0,0234
2815,00;0,0234
2814,00;0,0234
2813,00;0,0234
2812,00;0,0234
2811,00;0,0234
2810,00;0,0234
2809,00;0,0234
2808,00;0,0234
2807,00;0,0233
2806,00;0,0233
2805,00;0,0233
2804,00;0,0233
2803,00;0,0233
2802,00;0,0233
2801,00;0,0233
2800,00;0,0233
2799,00;0,0233
2798,00;0,0233
2797,00;0,0233
2796,00;0,0232
2795,00;0,0232
2794,00;0,0232
2793,00;0,0232
2792,00;0,0232
2791,00;0,0232
2790,00;0,0232
2789,00;0,0232
2788,00;0,0232
2787,00;0,0232
2786,00;0,0232
2785,00;0,0232
2784,00;0,0231
2783,00;0,0231
2782,00;0,0231
2781,00;0,0231
2780,00;0,0231
2779,00;0,0231
2778,00;0,0231
2777,00;0,0231
2776,00;0,0231
2775,00;0,0231
2774,00;0,0231
2773,00;0,0231
2772,00;0,0231
2771,00;0,0231
2770,00;0,0230
2769,00;0,0230
2768,00;0,0230
2767,00;0,0230
2766,00;0,0230
2765,00;0,0230
2764,00;0,0230
2763,00;0,0230
2762,00;0,0230
2761,00;0,0230
2760,00;0,0230
2759,00;0,0230
2758,00;0,0229
2757,00;0,0229
2756,00;0,0229
2755,00;0,0229
2754,00;0,0229
2753,00;0,0229
2752,00;0,0229
2751,00;0,0229
2750,00;0,0229
2749,00;0,0229
2748,00;0,0229
2747,00;0,0229
2746,00;0,0229
2745,00;0,0228
2744,00;0,0228
2743,00;0,0228
2742,00;0,0228
2741,00;0,0228
2740,00;0,0228
2739,00;0,0228
2738,00;0,0228
2737,00;0,0228
2736,00;0,0228
2735,00;0,0228
2734,00;0,0228
2733,00;0,0228
2732,00;0,0228
2731,00;0,0227
2730,00;0,0227
2729,00;0,0227
2728,00;0,0227
2727,00;0,0227
2726,00;0,0227
2725,00;0,0227
2724,00;0,0227
2723,00;0,0227
2722,00;0,0227
2721,00;0,0227
2720,00;0,0227
2719,00;0,0227
2718,00;0,0227
2717,00;0,0227
2716,00;0,0226
2715,00;0,0226
2714,00;0,0226
2713,00;0,0226
2712,00;0,0226
2711,00;0,0226
2710,00;0,0226
2709,00;0,0226
2708,00;0,0226
2707,00;0,0226
2706,00;0,0226
2705,00;0,0226
2704,00;0,0226
2703,00;0,0226
2702,00;0,0226
2701,00;0,0226
2700,00;0,0226
2699,00;0,0225
2698,00;0,0225
2697,00;0,0225
2696,00;0,0225
2695,00;0,0225
2694,00;0,0225
2693,00;0,0225
2692,00;0,0225
2691,00;0,0225
2690,00;0,0225
2689,00;0,0225
2688,00;0,0225
2687,00;0,0225
2686,00;0,0225
2685,00;0,0225
2684,00;0,0225
2683,00;0,0225
2682,00;0,0225
2681,00;0,0225
2680,00;0,0225
2679,00;0,0225
2678,00;0,0224
2677,00;0,0224
2676,00;0,0224
2675,00;0,0224
