Создан как новый массив данных;Образец 001 полученный BalashovM Дата вторник, ноября 16 2021
cm-1;A
4000,00;0,0434
3999,00;0,0434
3998,00;0,0434
3997,00;0,0434
3996,00;0,0434
3995,00;0,0434
3994,00;0,0434
3993,00;0,0434
3992,00;0,0434
3991,00;0,0434
3990,00;0,0434
3989,00;0,0434
3988,00;0,0434
3987,00;0,0434
3986,00;0,0434
3985,00;0,0434
3984,00;0,0434
3983,00;0,0434
3982,00;0,0434
3981,00;0,0434
3980,00;0,0434
3979,00;0,0434
3978,00;0,0434
3977,00;0,0434
3976,00;0,0434
3975,00;0,0434
3974,00;0,0434
3973,00;0,0434
3972,00;0,0434
3971,00;0,0434
3970,00;0,0434
3969,00;0,0434
3968,00;0,0434
3967,00;0,0434
3966,00;0,0434
3965,00;0,0434
3964,00;0,0434
3963,00;0,0434
3962,00;0,0434
3961,00;0,0434
3960,00;0,0434
3959,00;0,0434
3958,00;0,0434
3957,00;0,0434
3956,00;0,0434
3955,00;0,0434
3954,00;0,0434
3953,00;0,0434
3952,00;0,0434
3951,00;0,0434
3950,00;0,0434
3949,00;0,0434
3948,00;0,0434
3947,00;0,0434
3946,00;0,0434
3945,00;0,0434
3944,00;0,0434
3943,00;0,0434
3942,00;0,0434
3941,00;0,0434
3940,00;0,0434
3939,00;0,0434
3938,00;0,0434
3937,00;0,0434
3936,00;0,0434
3935,00;0,0434
3934,00;0,0434
3933,00;0,0434
3932,00;0,0434
3931,00;0,0434
3930,00;0,0434
3929,00;0,0434
3928,00;0,0434
3927,00;0,0434
3926,00;0,0434
3925,00;0,0434
3924,00;0,0435
3923,00;0,0435
3922,00;0,0435
3921,00;0,0435
3920,00;0,0435
3919,00;0,0435
3918,00;0,0435
3917,00;0,0435
3916,00;0,0435
3915,00;0,0434
3914,00;0,0434
3913,00;0,0434
3912,00;0,0434
3911,00;0,0435
3910,00;0,0435
3909,00;0,0435
3908,00;0,0435
3907,00;0,0435
3906,00;0,0435
3905,00;0,0435
3904,00;0,0435
3903,00;0,0435
3902,00;0,0435
3901,00;0,0435
3900,00;0,0435
3899,00;0,0435
3898,00;0,0435
3897,00;0,0435
3896,00;0,0435
3895,00;0,0435
3894,00;0,0435
3893,00;0,0435
3892,00;0,0435
3891,00;0,0435
3890,00;0,0435
3889,00;0,0435
3888,00;0,0435
3887,00;0,0435
3886,00;0,0435
3885,00;0,0435
3884,00;0,0435
3883,00;0,0435
3882,00;0,0435
3881,00;0,0435
3880,00;0,0435
3879,00;0,0435
3878,00;0,0435
3877,00;0,0435
3876,00;0,0435
3875,00;0,0435
3874,00;0,0435
3873,00;0,0435
3872,00;0,0435
3871,00;0,0435
3870,00;0,0435
3869,00;0,0435
3868,00;0,0435
3867,00;0,0435
3866,00;0,0435
3865,00;0,0435
3864,00;0,0435
3863,00;0,0435
3862,00;0,0435
3861,00;0,0435
3860,00;0,0435
3859,00;0,0436
3858,00;0,0436
3857,00;0,0436
3856,00;0,0436
3855,00;0,0436
3854,00;0,0436
3853,00;0,0436
3852,00;0,0436
3851,00;0,0436
3850,00;0,0436
3849,00;0,0436
3848,00;0,0436
3847,00;0,0436
3846,00;0,0436
3845,00;0,0436
3844,00;0,0436
3843,00;0,0436
3842,00;0,0436
3841,00;0,0436
3840,00;0,0436
3839,00;0,0436
3838,00;0,0436
3837,00;0,0436
3836,00;0,0436
3835,00;0,0436
3834,00;0,0436
3833,00;0,0436
3832,00;0,0436
3831,00;0,0436
3830,00;0,0436
3829,00;0,0436
3828,00;0,0436
3827,00;0,0436
3826,00;0,0436
3825,00;0,0436
3824,00;0,0436
3823,00;0,0436
3822,00;0,0436
3821,00;0,0436
3820,00;0,0436
3819,00;0,0436
3818,00;0,0436
3817,00;0,0436
3816,00;0,0436
3815,00;0,0436
3814,00;0,0436
3813,00;0,0435
3812,00;0,0435
3811,00;0,0435
3810,00;0,0435
3809,00;0,0435
3808,00;0,0435
3807,00;0,0435
3806,00;0,0435
3805,00;0,0435
3804,00;0,0435
3803,00;0,0435
3802,00;0,0435
3801,00;0,0435
3800,00;0,0435
3799,00;0,0435
3798,00;0,0435
3797,00;0,0435
3796,00;0,0435
3795,00;0,0435
3794,00;0,0435
3793,00;0,0435
3792,00;0,0435
3791,00;0,0435
3790,00;0,0435
3789,00;0,0435
3788,00;0,0435
3787,00;0,0435
3786,00;0,0435
3785,00;0,0435
3784,00;0,0435
3783,00;0,0435
3782,00;0,0435
3781,00;0,0435
3780,00;0,0435
3779,00;0,0435
3778,00;0,0435
3777,00;0,0435
3776,00;0,0435
3775,00;0,0435
3774,00;0,0435
3773,00;0,0435
3772,00;0,0435
3771,00;0,0435
3770,00;0,0435
3769,00;0,0435
3768,00;0,0435
3767,00;0,0435
3766,00;0,0435
3765,00;0,0435
3764,00;0,0435
3763,00;0,0435
3762,00;0,0435
3761,00;0,0435
3760,00;0,0435
3759,00;0,0435
3758,00;0,0435
3757,00;0,0435
3756,00;0,0435
3755,00;0,0435
3754,00;0,0435
3753,00;0,0435
3752,00;0,0435
3751,00;0,0435
3750,00;0,0435
3749,00;0,0435
3748,00;0,0435
3747,00;0,0435
3746,00;0,0435
3745,00;0,0435
3744,00;0,0435
3743,00;0,0435
3742,00;0,0435
3741,00;0,0435
3740,00;0,0435
3739,00;0,0435
3738,00;0,0435
3737,00;0,0435
3736,00;0,0435
3735,00;0,0435
3734,00;0,0434
3733,00;0,0434
3732,00;0,0434
3731,00;0,0435
3730,00;0,0435
3729,00;0,0435
3728,00;0,0435
3727,00;0,0435
3726,00;0,0435
3725,00;0,0435
3724,00;0,0434
3723,00;0,0434
3722,00;0,0434
3721,00;0,0434
3720,00;0,0434
3719,00;0,0434
3718,00;0,0434
3717,00;0,0435
3716,00;0,0435
3715,00;0,0435
3714,00;0,0435
3713,00;0,0435
3712,00;0,0435
3711,00;0,0435
3710,00;0,0435
3709,00;0,0435
3708,00;0,0435
3707,00;0,0435
3706,00;0,0435
3705,00;0,0435
3704,00;0,0435
3703,00;0,0435
3702,00;0,0435
3701,00;0,0435
3700,00;0,0435
3699,00;0,0435
3698,00;0,0435
3697,00;0,0435
3696,00;0,0435
3695,00;0,0435
3694,00;0,0435
3693,00;0,0435
3692,00;0,0435
3691,00;0,0435
3690,00;0,0435
3689,00;0,0435
3688,00;0,0435
3687,00;0,0435
3686,00;0,0435
3685,00;0,0435
3684,00;0,0435
3683,00;0,0435
3682,00;0,0435
3681,00;0,0435
3680,00;0,0435
3679,00;0,0435
3678,00;0,0435
3677,00;0,0435
3676,00;0,0435
3675,00;0,0435
3674,00;0,0435
3673,00;0,0435
3672,00;0,0435
3671,00;0,0435
3670,00;0,0435
3669,00;0,0435
3668,00;0,0435
3667,00;0,0435
3666,00;0,0435
3665,00;0,0435
3664,00;0,0434
3663,00;0,0434
3662,00;0,0434
3661,00;0,0434
3660,00;0,0434
3659,00;0,0434
3658,00;0,0434
3657,00;0,0434
3656,00;0,0434
3655,00;0,0434
3654,00;0,0434
3653,00;0,0434
3652,00;0,0434
3651,00;0,0434
3650,00;0,0434
3649,00;0,0434
3648,00;0,0434
3647,00;0,0434
3646,00;0,0434
3645,00;0,0434
3644,00;0,0434
3643,00;0,0434
3642,00;0,0434
3641,00;0,0434
3640,00;0,0434
3639,00;0,0434
3638,00;0,0434
3637,00;0,0434
3636,00;0,0434
3635,00;0,0434
3634,00;0,0434
3633,00;0,0434
3632,00;0,0434
3631,00;0,0434
3630,00;0,0434
3629,00;0,0434
3628,00;0,0434
3627,00;0,0434
3626,00;0,0434
3625,00;0,0434
3624,00;0,0434
3623,00;0,0434
3622,00;0,0434
3621,00;0,0434
3620,00;0,0434
3619,00;0,0434
3618,00;0,0434
3617,00;0,0434
3616,00;0,0434
3615,00;0,0434
3614,00;0,0434
3613,00;0,0434
3612,00;0,0434
3611,00;0,0434
3610,00;0,0434
3609,00;0,0434
3608,00;0,0434
3607,00;0,0434
3606,00;0,0434
3605,00;0,0434
3604,00;0,0434
3603,00;0,0434
3602,00;0,0434
3601,00;0,0435
3600,00;0,0435
3599,00;0,0435
3598,00;0,0435
3597,00;0,0435
3596,00;0,0435
3595,00;0,0435
3594,00;0,0435
3593,00;0,0435
3592,00;0,0435
3591,00;0,0435
3590,00;0,0435
3589,00;0,0435
3588,00;0,0435
3587,00;0,0435
3586,00;0,0435
3585,00;0,0435
3584,00;0,0435
3583,00;0,0435
3582,00;0,0435
3581,00;0,0435
3580,00;0,0435
3579,00;0,0436
3578,00;0,0436
3577,00;0,0436
3576,00;0,0436
3575,00;0,0436
3574,00;0,0436
3573,00;0,0436
3572,00;0,0436
3571,00;0,0436
3570,00;0,0436
3569,00;0,0436
3568,00;0,0436
3567,00;0,0436
3566,00;0,0436
3565,00;0,0436
3564,00;0,0436
3563,00;0,0436
3562,00;0,0437
3561,00;0,0437
3560,00;0,0437
3559,00;0,0437
3558,00;0,0437
3557,00;0,0437
3556,00;0,0437
3555,00;0,0437
3554,00;0,0437
3553,00;0,0437
3552,00;0,0437
3551,00;0,0437
3550,00;0,0437
3549,00;0,0438
3548,00;0,0438
3547,00;0,0438
3546,00;0,0438
3545,00;0,0438
3544,00;0,0438
3543,00;0,0438
3542,00;0,0438
3541,00;0,0438
3540,00;0,0438
3539,00;0,0438
3538,00;0,0438
3537,00;0,0438
3536,00;0,0438
3535,00;0,0439
3534,00;0,0439
3533,00;0,0439
3532,00;0,0439
3531,00;0,0439
3530,00;0,0439
3529,00;0,0439
3528,00;0,0439
3527,00;0,0439
3526,00;0,0439
3525,00;0,0439
3524,00;0,0439
3523,00;0,0439
3522,00;0,0439
3521,00;0,0439
3520,00;0,0439
3519,00;0,0439
3518,00;0,0439
3517,00;0,0439
3516,00;0,0439
3515,00;0,0439
3514,00;0,0439
3513,00;0,0439
3512,00;0,0439
3511,00;0,0440
3510,00;0,0440
3509,00;0,0440
3508,00;0,0440
3507,00;0,0440
3506,00;0,0440
3505,00;0,0440
3504,00;0,0440
3503,00;0,0440
3502,00;0,0440
3501,00;0,0440
3500,00;0,0440
3499,00;0,0440
3498,00;0,0440
3497,00;0,0440
3496,00;0,0440
3495,00;0,0440
3494,00;0,0440
3493,00;0,0440
3492,00;0,0440
3491,00;0,0440
3490,00;0,0440
3489,00;0,0440
3488,00;0,0440
3487,00;0,0440
3486,00;0,0440
3485,00;0,0440
3484,00;0,0440
3483,00;0,0440
3482,00;0,0440
3481,00;0,0440
3480,00;0,0441
3479,00;0,0441
3478,00;0,0441
3477,00;0,0441
3476,00;0,0441
3475,00;0,0441
3474,00;0,0441
3473,00;0,0441
3472,00;0,0441
3471,00;0,0441
3470,00;0,0441
3469,00;0,0441
3468,00;0,0441
3467,00;0,0441
3466,00;0,0441
3465,00;0,0441
3464,00;0,0441
3463,00;0,0441
3462,00;0,0441
3461,00;0,0442
3460,00;0,0442
3459,00;0,0442
3458,00;0,0442
3457,00;0,0442
3456,00;0,0442
3455,00;0,0442
3454,00;0,0442
3453,00;0,0442
3452,00;0,0442
3451,00;0,0442
3450,00;0,0442
3449,00;0,0442
3448,00;0,0442
3447,00;0,0442
3446,00;0,0442
3445,00;0,0443
3444,00;0,0443
3443,00;0,0443
3442,00;0,0443
3441,00;0,0443
3440,00;0,0443
3439,00;0,0443
3438,00;0,0443
3437,00;0,0443
3436,00;0,0443
3435,00;0,0443
3434,00;0,0443
3433,00;0,0443
3432,00;0,0444
3431,00;0,0444
3430,00;0,0444
3429,00;0,0444
3428,00;0,0444
3427,00;0,0444
3426,00;0,0444
3425,00;0,0444
3424,00;0,0444
3423,00;0,0445
3422,00;0,0445
3421,00;0,0445
3420,00;0,0445
3419,00;0,0445
3418,00;0,0445
3417,00;0,0445
3416,00;0,0445
3415,00;0,0445
3414,00;0,0446
3413,00;0,0446
3412,00;0,0446
3411,00;0,0446
3410,00;0,0446
3409,00;0,0446
3408,00;0,0446
3407,00;0,0446
3406,00;0,0446
3405,00;0,0446
3404,00;0,0446
3403,00;0,0446
3402,00;0,0446
3401,00;0,0446
3400,00;0,0446
3399,00;0,0447
3398,00;0,0447
3397,00;0,0447
3396,00;0,0447
3395,00;0,0447
3394,00;0,0447
3393,00;0,0447
3392,00;0,0447
3391,00;0,0447
3390,00;0,0447
3389,00;0,0447
3388,00;0,0447
3387,00;0,0447
3386,00;0,0447
3385,00;0,0447
3384,00;0,0447
3383,00;0,0447
3382,00;0,0448
3381,00;0,0448
3380,00;0,0448
3379,00;0,0448
3378,00;0,0448
3377,00;0,0448
3376,00;0,0448
3375,00;0,0448
3374,00;0,0448
3373,00;0,0448
3372,00;0,0448
3371,00;0,0448
3370,00;0,0448
3369,00;0,0448
3368,00;0,0448
3367,00;0,0448
3366,00;0,0449
3365,00;0,0449
3364,00;0,0449
3363,00;0,0449
3362,00;0,0449
3361,00;0,0449
3360,00;0,0449
3359,00;0,0449
3358,00;0,0449
3357,00;0,0449
3356,00;0,0449
3355,00;0,0449
3354,00;0,0449
3353,00;0,0449
3352,00;0,0449
3351,00;0,0449
3350,00;0,0449
3349,00;0,0450
3348,00;0,0450
3347,00;0,0450
3346,00;0,0450
3345,00;0,0450
3344,00;0,0450
3343,00;0,0450
3342,00;0,0450
3341,00;0,0450
3340,00;0,0450
3339,00;0,0450
3338,00;0,0450
3337,00;0,0450
3336,00;0,0450
3335,00;0,0450
3334,00;0,0450
3333,00;0,0450
3332,00;0,0450
3331,00;0,0450
3330,00;0,0450
3329,00;0,0450
3328,00;0,0450
3327,00;0,0450
3326,00;0,0451
3325,00;0,0451
3324,00;0,0451
3323,00;0,0451
3322,00;0,0451
3321,00;0,0451
3320,00;0,0451
3319,00;0,0451
3318,00;0,0451
3317,00;0,0451
3316,00;0,0451
3315,00;0,0451
3314,00;0,0451
3313,00;0,0451
3312,00;0,0451
3311,00;0,0451
3310,00;0,0451
3309,00;0,0451
3308,00;0,0451
3307,00;0,0451
3306,00;0,0451
3305,00;0,0451
3304,00;0,0451
3303,00;0,0452
3302,00;0,0452
3301,00;0,0452
3300,00;0,0452
3299,00;0,0452
3298,00;0,0452
3297,00;0,0452
3296,00;0,0452
3295,00;0,0452
3294,00;0,0452
3293,00;0,0452
3292,00;0,0452
3291,00;0,0452
3290,00;0,0452
3289,00;0,0452
3288,00;0,0452
3287,00;0,0453
3286,00;0,0453
3285,00;0,0453
3284,00;0,0453
3283,00;0,0453
3282,00;0,0453
3281,00;0,0453
3280,00;0,0453
3279,00;0,0453
3278,00;0,0453
3277,00;0,0453
3276,00;0,0453
3275,00;0,0453
3274,00;0,0453
3273,00;0,0453
3272,00;0,0453
3271,00;0,0453
3270,00;0,0453
3269,00;0,0453
3268,00;0,0454
3267,00;0,0454
3266,00;0,0454
3265,00;0,0454
3264,00;0,0454
3263,00;0,0453
3262,00;0,0454
3261,00;0,0454
3260,00;0,0454
3259,00;0,0454
3258,00;0,0454
3257,00;0,0454
3256,00;0,0454
3255,00;0,0454
3254,00;0,0454
3253,00;0,0454
3252,00;0,0454
3251,00;0,0454
3250,00;0,0454
3249,00;0,0454
3248,00;0,0454
3247,00;0,0454
3246,00;0,0454
3245,00;0,0454
3244,00;0,0454
3243,00;0,0454
3242,00;0,0454
3241,00;0,0454
3240,00;0,0454
3239,00;0,0454
3238,00;0,0454
3237,00;0,0454
3236,00;0,0454
3235,00;0,0454
3234,00;0,0454
3233,00;0,0454
3232,00;0,0454
3231,00;0,0454
3230,00;0,0454
3229,00;0,0455
3228,00;0,0455
3227,00;0,0455
3226,00;0,0455
3225,00;0,0455
3224,00;0,0455
3223,00;0,0455
3222,00;0,0454
3221,00;0,0454
3220,00;0,0454
3219,00;0,0454
3218,00;0,0455
3217,00;0,0455
3216,00;0,0455
3215,00;0,0455
3214,00;0,0455
3213,00;0,0455
3212,00;0,0455
3211,00;0,0455
3210,00;0,0455
3209,00;0,0455
3208,00;0,0455
3207,00;0,0455
3206,00;0,0455
3205,00;0,0455
3204,00;0,0455
3203,00;0,0455
3202,00;0,0455
3201,00;0,0455
3200,00;0,0455
3199,00;0,0456
3198,00;0,0456
3197,00;0,0456
3196,00;0,0456
3195,00;0,0456
3194,00;0,0456
3193,00;0,0456
3192,00;0,0456
3191,00;0,0456
3190,00;0,0456
3189,00;0,0456
3188,00;0,0456
3187,00;0,0456
3186,00;0,0456
3185,00;0,0456
3184,00;0,0456
3183,00;0,0456
3182,00;0,0456
3181,00;0,0456
3180,00;0,0456
3179,00;0,0456
3178,00;0,0456
3177,00;0,0456
3176,00;0,0456
3175,00;0,0456
3174,00;0,0456
3173,00;0,0457
3172,00;0,0457
3171,00;0,0457
3170,00;0,0457
3169,00;0,0457
3168,00;0,0457
3167,00;0,0457
3166,00;0,0457
3165,00;0,0457
3164,00;0,0457
3163,00;0,0457
3162,00;0,0457
3161,00;0,0457
3160,00;0,0457
3159,00;0,0457
3158,00;0,0457
3157,00;0,0457
3156,00;0,0457
3155,00;0,0457
3154,00;0,0457
3153,00;0,0457
3152,00;0,0457
3151,00;0,0457
3150,00;0,0457
3149,00;0,0457
3148,00;0,0457
3147,00;0,0457
3146,00;0,0457
3145,00;0,0457
3144,00;0,0457
3143,00;0,0457
3142,00;0,0457
3141,00;0,0457
3140,00;0,0457
3139,00;0,0457
3138,00;0,0457
3137,00;0,0457
3136,00;0,0458
3135,00;0,0458
3134,00;0,0458
3133,00;0,0458
3132,00;0,0458
3131,00;0,0458
3130,00;0,0458
3129,00;0,0458
3128,00;0,0458
3127,00;0,0458
3126,00;0,0458
3125,00;0,0458
3124,00;0,0458
3123,00;0,0458
3122,00;0,0458
3121,00;0,0457
3120,00;0,0457
3119,00;0,0457
3118,00;0,0457
3117,00;0,0457
3116,00;0,0457
3115,00;0,0457
3114,00;0,0457
3113,00;0,0457
3112,00;0,0457
3111,00;0,0458
3110,00;0,0458
3109,00;0,0458
3108,00;0,0458
3107,00;0,0458
3106,00;0,0458
3105,00;0,0458
3104,00;0,0458
3103,00;0,0458
3102,00;0,0458
3101,00;0,0458
3100,00;0,0458
3099,00;0,0458
3098,00;0,0458
3097,00;0,0458
3096,00;0,0458
3095,00;0,0458
3094,00;0,0458
3093,00;0,0458
3092,00;0,0458
3091,00;0,0458
3090,00;0,0458
3089,00;0,0458
3088,00;0,0458
3087,00;0,0458
3086,00;0,0458
3085,00;0,0458
3084,00;0,0458
3083,00;0,0458
3082,00;0,0458
3081,00;0,0458
3080,00;0,0458
3079,00;0,0458
3078,00;0,0458
3077,00;0,0458
3076,00;0,0458
3075,00;0,0459
3074,00;0,0459
3073,00;0,0459
3072,00;0,0459
3071,00;0,0459
3070,00;0,0459
3069,00;0,0459
3068,00;0,0459
3067,00;0,0459
3066,00;0,0459
3065,00;0,0459
3064,00;0,0459
3063,00;0,0459
3062,00;0,0459
3061,00;0,0459
3060,00;0,0459
3059,00;0,0459
3058,00;0,0459
3057,00;0,0459
3056,00;0,0459
3055,00;0,0459
3054,00;0,0459
3053,00;0,0459
3052,00;0,0459
3051,00;0,0459
3050,00;0,0459
3049,00;0,0459
3048,00;0,0459
3047,00;0,0459
3046,00;0,0459
3045,00;0,0459
3044,00;0,0459
3043,00;0,0459
3042,00;0,0460
3041,00;0,0460
3040,00;0,0460
3039,00;0,0460
3038,00;0,0460
3037,00;0,0460
3036,00;0,0460
3035,00;0,0460
3034,00;0,0460
3033,00;0,0460
3032,00;0,0460
3031,00;0,0460
3030,00;0,0461
3029,00;0,0461
3028,00;0,0461
3027,00;0,0461
3026,00;0,0461
3025,00;0,0461
3024,00;0,0461
3023,00;0,0461
3022,00;0,0461
3021,00;0,0461
3020,00;0,0461
3019,00;0,0461
3018,00;0,0461
3017,00;0,0460
3016,00;0,0460
3015,00;0,0460
3014,00;0,0460
3013,00;0,0460
3012,00;0,0460
3011,00;0,0460
3010,00;0,0460
3009,00;0,0461
3008,00;0,0461
3007,00;0,0462
3006,00;0,0462
3005,00;0,0462
3004,00;0,0462
3003,00;0,0462
3002,00;0,0462
3001,00;0,0462
3000,00;0,0462
2999,00;0,0462
2998,00;0,0462
2997,00;0,0462
2996,00;0,0462
2995,00;0,0461
2994,00;0,0461
2993,00;0,0461
2992,00;0,0462
2991,00;0,0462
2990,00;0,0461
2989,00;0,0461
2988,00;0,0461
2987,00;0,0461
2986,00;0,0461
2985,00;0,0460
2984,00;0,0460
2983,00;0,0460
2982,00;0,0459
2981,00;0,0459
2980,00;0,0459
2979,00;0,0458
2978,00;0,0458
2977,00;0,0458
2976,00;0,0457
2975,00;0,0457
2974,00;0,0456
2973,00;0,0456
2972,00;0,0456
2971,00;0,0455
2970,00;0,0454
2969,00;0,0453
2968,00;0,0452
2967,00;0,0451
2966,00;0,0450
2965,00;0,0450
2964,00;0,0449
2963,00;0,0448
2962,00;0,0448
2961,00;0,0447
2960,00;0,0447
2959,00;0,0447
2958,00;0,0446
2957,00;0,0446
2956,00;0,0446
2955,00;0,0446
2954,00;0,0446
2953,00;0,0446
2952,00;0,0447
2951,00;0,0447
2950,00;0,0447
2949,00;0,0447
2948,00;0,0447
2947,00;0,0446
2946,00;0,0446
2945,00;0,0446
2944,00;0,0446
2943,00;0,0445
2942,00;0,0444
2941,00;0,0443
2940,00;0,0443
2939,00;0,0442
2938,00;0,0441
2937,00;0,0440
2936,00;0,0439
2935,00;0,0438
2934,00;0,0437
2933,00;0,0436
2932,00;0,0435
2931,00;0,0434
2930,00;0,0433
2929,00;0,0433
2928,00;0,0433
2927,00;0,0433
2926,00;0,0433
2925,00;0,0434
2924,00;0,0435
2923,00;0,0436
2922,00;0,0437
2921,00;0,0439
2920,00;0,0440
2919,00;0,0442
2918,00;0,0443
2917,00;0,0445
2916,00;0,0446
2915,00;0,0447
2914,00;0,0448
2913,00;0,0449
2912,00;0,0450
2911,00;0,0450
2910,00;0,0451
2909,00;0,0452
2908,00;0,0452
2907,00;0,0452
2906,00;0,0453
2905,00;0,0454
2904,00;0,0455
2903,00;0,0455
2902,00;0,0456
2901,00;0,0456
2900,00;0,0456
2899,00;0,0456
2898,00;0,0456
2897,00;0,0456
2896,00;0,0457
2895,00;0,0457
2894,00;0,0458
2893,00;0,0458
2892,00;0,0459
2891,00;0,0459
2890,00;0,0459
2889,00;0,0459
2888,00;0,0460
2887,00;0,0460
2886,00;0,0460
2885,00;0,0460
2884,00;0,0460
2883,00;0,0460
2882,00;0,0459
2881,00;0,0459
2880,00;0,0458
2879,00;0,0458
2878,00;0,0458
2877,00;0,0457
2876,00;0,0457
2875,00;0,0456
2874,00;0,0456
2873,00;0,0455
2872,00;0,0455
2871,00;0,0456
2870,00;0,0456
2869,00;0,0456
2868,00;0,0456
2867,00;0,0455
2866,00;0,0455
2865,00;0,0455
2864,00;0,0455
2863,00;0,0455
2862,00;0,0454
2861,00;0,0453
2860,00;0,0452
2859,00;0,0452
2858,00;0,0451
2857,00;0,0451
2856,00;0,0451
2855,00;0,0451
2854,00;0,0452
2853,00;0,0453
2852,00;0,0454
2851,00;0,0455
2850,00;0,0456
2849,00;0,0457
2848,00;0,0458
2847,00;0,0459
2846,00;0,0460
2845,00;0,0461
2844,00;0,0462
2843,00;0,0462
2842,00;0,0463
2841,00;0,0463
2840,00;0,0463
2839,00;0,0463
2838,00;0,0464
2837,00;0,0464
2836,00;0,0465
2835,00;0,0465
2834,00;0,0465
2833,00;0,0466
2832,00;0,0466
2831,00;0,0466
2830,00;0,0466
2829,00;0,0466
2828,00;0,0466
2827,00;0,0466
2826,00;0,0466
2825,00;0,0466
2824,00;0,0466
2823,00;0,0466
2822,00;0,0467
2821,00;0,0467
2820,00;0,0467
2819,00;0,0467
2818,00;0,0467
2817,00;0,0467
2816,00;0,0467
2815,00;0,0467
2814,00;0,0467
2813,00;0,0467
2812,00;0,0466
2811,00;0,0466
2810,00;0,0466
2809,00;0,0466
2808,00;0,0466
2807,00;0,0466
2806,00;0,0466
2805,00;0,0467
2804,00;0,0467
2803,00;0,0467
2802,00;0,0467
2801,00;0,0467
2800,00;0,0467
2799,00;0,0467
2798,00;0,0467
2797,00;0,0467
2796,00;0,0467
2795,00;0,0467
2794,00;0,0467
2793,00;0,0467
2792,00;0,0467
2791,00;0,0467
2790,00;0,0467
2789,00;0,0467
2788,00;0,0467
2787,00;0,0467
2786,00;0,0467
2785,00;0,0467
2784,00;0,0467
2783,00;0,0467
2782,00;0,0467
2781,00;0,0467
2780,00;0,0467
2779,00;0,0467
2778,00;0,0467
2777,00;0,0467
2776,00;0,0467
2775,00;0,0467
2774,00;0,0467
2773,00;0,0467
2772,00;0,0467
2771,00;0,0467
2770,00;0,0467
2769,00;0,0467
2768,00;0,0467
2767,00;0,0467
2766,00;0,0467
2765,00;0,0467
2764,00;0,0467
2763,00;0,0467
2762,00;0,0467
2761,00;0,0467
2760,00;0,0467
2759,00;0,0467
2758,00;0,0467
2757,00;0,0467
2756,00;0,0467
2755,00;0,0467
2754,00;0,0467
2753,00;0,0467
2752,00;0,0467
2751,00;0,0467
2750,00;0,0467
2749,00;0,0467
2748,00;0,0467
2747,00;0,0467
2746,00;0,0467
2745,00;0,0467
2744,00;0,0467
2743,00;0,0467
2742,00;0,0467
2741,00;0,0467
2740,00;0,0467
2739,00;0,0467
2738,00;0,0467
2737,00;0,0467
2736,00;0,0467
2735,00;0,0467
2734,00;0,0467
2733,00;0,0467
2732,00;0,0467
2731,00;0,0467
2730,00;0,0467
2729,00;0,0467
2728,00;0,0467
2727,00;0,0467
2726,00;0,0467
2725,00;0,0468
2724,00;0,0468
2723,00;0,0468
2722,00;0,0468
2721,00;0,0468
2720,00;0,0468
2719,00;0,0468
2718,00;0,0468
2717,00;0,0468
2716,00;0,0468
2715,00;0,0468
2714,00;0,0468
2713,00;0,0468
2712,00;0,0468
2711,00;0,0468
2710,00;0,0468
2709,00;0,0468
2708,00;0,0468
2707,00;0,0468
2706,00;0,0468
2705,00;0,0468
2704,00;0,0468
2703,00;0,0468
2702,00;0,0468
2701,00;0,0468
2700,00;0,0468
2699,00;0,0468
2698,00;0,0468
2697,00;0,0468
2696,00;0,0468
2695,00;0,0468
2694,00;0,0468
2693,00;0,0468
2692,00;0,0468
2691,00;0,0468
2690,00;0,0468
2689,00;0,0468
2688,00;0,0468
2687,00;0,0468
2686,00;0,0468
2685,00;0,0468
2684,00;0,0468
2683,00;0,0468
2682,00;0,0468
2681,00;0,0468
2680,00;0,0468
2679,00;0,0468
2678,00;0,0468
2677,00;0,0468
2676,00;0,0468
2675,00;0,0468
