Создан как новый массив данных;Образец 016 полученный BalashovM Дата пятница, марта 03 2023
cm-1;A
4000,00;0,0237
3999,00;0,0237
3998,00;0,0237
3997,00;0,0237
3996,00;0,0237
3995,00;0,0237
3994,00;0,0237
3993,00;0,0237
3992,00;0,0237
3991,00;0,0237
3990,00;0,0237
3989,00;0,0237
3988,00;0,0237
3987,00;0,0237
3986,00;0,0237
3985,00;0,0237
3984,00;0,0237
3983,00;0,0237
3982,00;0,0237
3981,00;0,0237
3980,00;0,0237
3979,00;0,0237
3978,00;0,0237
3977,00;0,0237
3976,00;0,0237
3975,00;0,0237
3974,00;0,0237
3973,00;0,0237
3972,00;0,0238
3971,00;0,0238
3970,00;0,0238
3969,00;0,0238
3968,00;0,0238
3967,00;0,0238
3966,00;0,0238
3965,00;0,0238
3964,00;0,0238
3963,00;0,0238
3962,00;0,0238
3961,00;0,0238
3960,00;0,0238
3959,00;0,0238
3958,00;0,0238
3957,00;0,0238
3956,00;0,0238
3955,00;0,0238
3954,00;0,0238
3953,00;0,0238
3952,00;0,0239
3951,00;0,0239
3950,00;0,0239
3949,00;0,0239
3948,00;0,0239
3947,00;0,0239
3946,00;0,0239
3945,00;0,0239
3944,00;0,0239
3943,00;0,0239
3942,00;0,0239
3941,00;0,0239
3940,00;0,0239
3939,00;0,0239
3938,00;0,0239
3937,00;0,0239
3936,00;0,0239
3935,00;0,0239
3934,00;0,0239
3933,00;0,0239
3932,00;0,0239
3931,00;0,0239
3930,00;0,0239
3929,00;0,0239
3928,00;0,0239
3927,00;0,0239
3926,00;0,0240
3925,00;0,0240
3924,00;0,0240
3923,00;0,0240
3922,00;0,0240
3921,00;0,0240
3920,00;0,0240
3919,00;0,0240
3918,00;0,0240
3917,00;0,0240
3916,00;0,0240
3915,00;0,0240
3914,00;0,0240
3913,00;0,0240
3912,00;0,0240
3911,00;0,0240
3910,00;0,0240
3909,00;0,0240
3908,00;0,0240
3907,00;0,0240
3906,00;0,0240
3905,00;0,0240
3904,00;0,0240
3903,00;0,0240
3902,00;0,0240
3901,00;0,0240
3900,00;0,0241
3899,00;0,0241
3898,00;0,0241
3897,00;0,0241
3896,00;0,0241
3895,00;0,0241
3894,00;0,0241
3893,00;0,0241
3892,00;0,0241
3891,00;0,0241
3890,00;0,0241
3889,00;0,0241
3888,00;0,0241
3887,00;0,0241
3886,00;0,0241
3885,00;0,0241
3884,00;0,0241
3883,00;0,0241
3882,00;0,0241
3881,00;0,0241
3880,00;0,0241
3879,00;0,0241
3878,00;0,0241
3877,00;0,0241
3876,00;0,0241
3875,00;0,0241
3874,00;0,0241
3873,00;0,0241
3872,00;0,0241
3871,00;0,0241
3870,00;0,0241
3869,00;0,0241
3868,00;0,0241
3867,00;0,0241
3866,00;0,0241
3865,00;0,0241
3864,00;0,0241
3863,00;0,0241
3862,00;0,0241
3861,00;0,0241
3860,00;0,0241
3859,00;0,0241
3858,00;0,0241
3857,00;0,0241
3856,00;0,0241
3855,00;0,0241
3854,00;0,0241
3853,00;0,0241
3852,00;0,0241
3851,00;0,0241
3850,00;0,0242
3849,00;0,0242
3848,00;0,0242
3847,00;0,0242
3846,00;0,0242
3845,00;0,0242
3844,00;0,0242
3843,00;0,0242
3842,00;0,0242
3841,00;0,0242
3840,00;0,0242
3839,00;0,0242
3838,00;0,0242
3837,00;0,0242
3836,00;0,0242
3835,00;0,0242
3834,00;0,0242
3833,00;0,0242
3832,00;0,0242
3831,00;0,0242
3830,00;0,0242
3829,00;0,0242
3828,00;0,0242
3827,00;0,0242
3826,00;0,0242
3825,00;0,0242
3824,00;0,0242
3823,00;0,0243
3822,00;0,0243
3821,00;0,0243
3820,00;0,0242
3819,00;0,0242
3818,00;0,0242
3817,00;0,0242
3816,00;0,0242
3815,00;0,0242
3814,00;0,0242
3813,00;0,0242
3812,00;0,0242
3811,00;0,0242
3810,00;0,0242
3809,00;0,0242
3808,00;0,0242
3807,00;0,0242
3806,00;0,0242
3805,00;0,0242
3804,00;0,0242
3803,00;0,0242
3802,00;0,0242
3801,00;0,0242
3800,00;0,0242
3799,00;0,0242
3798,00;0,0242
3797,00;0,0242
3796,00;0,0242
3795,00;0,0242
3794,00;0,0242
3793,00;0,0242
3792,00;0,0242
3791,00;0,0242
3790,00;0,0242
3789,00;0,0242
3788,00;0,0242
3787,00;0,0242
3786,00;0,0242
3785,00;0,0242
3784,00;0,0242
3783,00;0,0242
3782,00;0,0242
3781,00;0,0242
3780,00;0,0242
3779,00;0,0242
3778,00;0,0242
3777,00;0,0242
3776,00;0,0242
3775,00;0,0242
3774,00;0,0242
3773,00;0,0242
3772,00;0,0242
3771,00;0,0242
3770,00;0,0242
3769,00;0,0242
3768,00;0,0242
3767,00;0,0242
3766,00;0,0242
3765,00;0,0242
3764,00;0,0242
3763,00;0,0242
3762,00;0,0242
3761,00;0,0242
3760,00;0,0242
3759,00;0,0242
3758,00;0,0242
3757,00;0,0242
3756,00;0,0242
3755,00;0,0242
3754,00;0,0243
3753,00;0,0243
3752,00;0,0243
3751,00;0,0242
3750,00;0,0242
3749,00;0,0242
3748,00;0,0242
3747,00;0,0242
3746,00;0,0242
3745,00;0,0242
3744,00;0,0242
3743,00;0,0242
3742,00;0,0242
3741,00;0,0242
3740,00;0,0242
3739,00;0,0242
3738,00;0,0242
3737,00;0,0242
3736,00;0,0242
3735,00;0,0242
3734,00;0,0242
3733,00;0,0242
3732,00;0,0242
3731,00;0,0242
3730,00;0,0242
3729,00;0,0241
3728,00;0,0241
3727,00;0,0241
3726,00;0,0241
3725,00;0,0241
3724,00;0,0241
3723,00;0,0241
3722,00;0,0241
3721,00;0,0241
3720,00;0,0241
3719,00;0,0241
3718,00;0,0241
3717,00;0,0241
3716,00;0,0241
3715,00;0,0241
3714,00;0,0241
3713,00;0,0241
3712,00;0,0241
3711,00;0,0241
3710,00;0,0241
3709,00;0,0241
3708,00;0,0241
3707,00;0,0241
3706,00;0,0242
3705,00;0,0242
3704,00;0,0241
3703,00;0,0241
3702,00;0,0241
3701,00;0,0240
3700,00;0,0240
3699,00;0,0240
3698,00;0,0240
3697,00;0,0240
3696,00;0,0241
3695,00;0,0241
3694,00;0,0241
3693,00;0,0241
3692,00;0,0241
3691,00;0,0241
3690,00;0,0241
3689,00;0,0241
3688,00;0,0242
3687,00;0,0242
3686,00;0,0242
3685,00;0,0242
3684,00;0,0242
3683,00;0,0242
3682,00;0,0242
3681,00;0,0242
3680,00;0,0242
3679,00;0,0242
3678,00;0,0242
3677,00;0,0242
3676,00;0,0243
3675,00;0,0243
3674,00;0,0243
3673,00;0,0243
3672,00;0,0244
3671,00;0,0244
3670,00;0,0243
3669,00;0,0243
3668,00;0,0243
3667,00;0,0243
3666,00;0,0243
3665,00;0,0243
3664,00;0,0243
3663,00;0,0244
3662,00;0,0244
3661,00;0,0244
3660,00;0,0244
3659,00;0,0244
3658,00;0,0244
3657,00;0,0244
3656,00;0,0244
3655,00;0,0244
3654,00;0,0244
3653,00;0,0244
3652,00;0,0244
3651,00;0,0244
3650,00;0,0244
3649,00;0,0245
3648,00;0,0245
3647,00;0,0245
3646,00;0,0244
3645,00;0,0244
3644,00;0,0244
3643,00;0,0244
3642,00;0,0244
3641,00;0,0244
3640,00;0,0244
3639,00;0,0244
3638,00;0,0244
3637,00;0,0244
3636,00;0,0243
3635,00;0,0243
3634,00;0,0243
3633,00;0,0243
3632,00;0,0243
3631,00;0,0243
3630,00;0,0243
3629,00;0,0243
3628,00;0,0244
3627,00;0,0244
3626,00;0,0244
3625,00;0,0244
3624,00;0,0244
3623,00;0,0245
3622,00;0,0245
3621,00;0,0245
3620,00;0,0245
3619,00;0,0245
3618,00;0,0245
3617,00;0,0245
3616,00;0,0245
3615,00;0,0245
3614,00;0,0245
3613,00;0,0245
3612,00;0,0245
3611,00;0,0245
3610,00;0,0245
3609,00;0,0245
3608,00;0,0246
3607,00;0,0246
3606,00;0,0246
3605,00;0,0246
3604,00;0,0246
3603,00;0,0246
3602,00;0,0247
3601,00;0,0247
3600,00;0,0247
3599,00;0,0247
3598,00;0,0247
3597,00;0,0247
3596,00;0,0247
3595,00;0,0247
3594,00;0,0247
3593,00;0,0247
3592,00;0,0248
3591,00;0,0248
3590,00;0,0248
3589,00;0,0248
3588,00;0,0248
3587,00;0,0248
3586,00;0,0248
3585,00;0,0248
3584,00;0,0249
3583,00;0,0249
3582,00;0,0249
3581,00;0,0249
3580,00;0,0249
3579,00;0,0249
3578,00;0,0249
3577,00;0,0249
3576,00;0,0249
3575,00;0,0250
3574,00;0,0250
3573,00;0,0250
3572,00;0,0250
3571,00;0,0250
3570,00;0,0250
3569,00;0,0251
3568,00;0,0251
3567,00;0,0251
3566,00;0,0251
3565,00;0,0251
3564,00;0,0251
3563,00;0,0251
3562,00;0,0251
3561,00;0,0252
3560,00;0,0252
3559,00;0,0252
3558,00;0,0252
3557,00;0,0252
3556,00;0,0252
3555,00;0,0252
3554,00;0,0253
3553,00;0,0253
3552,00;0,0253
3551,00;0,0253
3550,00;0,0253
3549,00;0,0253
3548,00;0,0253
3547,00;0,0254
3546,00;0,0254
3545,00;0,0254
3544,00;0,0254
3543,00;0,0254
3542,00;0,0254
3541,00;0,0254
3540,00;0,0254
3539,00;0,0255
3538,00;0,0255
3537,00;0,0255
3536,00;0,0255
3535,00;0,0255
3534,00;0,0255
3533,00;0,0256
3532,00;0,0256
3531,00;0,0256
3530,00;0,0256
3529,00;0,0256
3528,00;0,0256
3527,00;0,0256
3526,00;0,0256
3525,00;0,0257
3524,00;0,0257
3523,00;0,0257
3522,00;0,0257
3521,00;0,0257
3520,00;0,0257
3519,00;0,0257
3518,00;0,0257
3517,00;0,0257
3516,00;0,0257
3515,00;0,0257
3514,00;0,0258
3513,00;0,0258
3512,00;0,0258
3511,00;0,0258
3510,00;0,0258
3509,00;0,0258
3508,00;0,0258
3507,00;0,0258
3506,00;0,0258
3505,00;0,0259
3504,00;0,0259
3503,00;0,0259
3502,00;0,0259
3501,00;0,0259
3500,00;0,0259
3499,00;0,0259
3498,00;0,0259
3497,00;0,0259
3496,00;0,0259
3495,00;0,0259
3494,00;0,0259
3493,00;0,0259
3492,00;0,0260
3491,00;0,0260
3490,00;0,0260
3489,00;0,0260
3488,00;0,0260
3487,00;0,0260
3486,00;0,0260
3485,00;0,0260
3484,00;0,0260
3483,00;0,0260
3482,00;0,0261
3481,00;0,0261
3480,00;0,0261
3479,00;0,0261
3478,00;0,0261
3477,00;0,0261
3476,00;0,0261
3475,00;0,0261
3474,00;0,0261
3473,00;0,0261
3472,00;0,0262
3471,00;0,0262
3470,00;0,0262
3469,00;0,0262
3468,00;0,0262
3467,00;0,0262
3466,00;0,0262
3465,00;0,0262
3464,00;0,0263
3463,00;0,0263
3462,00;0,0263
3461,00;0,0263
3460,00;0,0263
3459,00;0,0263
3458,00;0,0263
3457,00;0,0263
3456,00;0,0263
3455,00;0,0263
3454,00;0,0264
3453,00;0,0264
3452,00;0,0264
3451,00;0,0264
3450,00;0,0264
3449,00;0,0264
3448,00;0,0264
3447,00;0,0264
3446,00;0,0264
3445,00;0,0264
3444,00;0,0264
3443,00;0,0264
3442,00;0,0264
3441,00;0,0265
3440,00;0,0265
3439,00;0,0265
3438,00;0,0265
3437,00;0,0265
3436,00;0,0265
3435,00;0,0265
3434,00;0,0265
3433,00;0,0265
3432,00;0,0265
3431,00;0,0266
3430,00;0,0266
3429,00;0,0266
3428,00;0,0266
3427,00;0,0266
3426,00;0,0266
3425,00;0,0266
3424,00;0,0266
3423,00;0,0266
3422,00;0,0266
3421,00;0,0266
3420,00;0,0267
3419,00;0,0267
3418,00;0,0267
3417,00;0,0267
3416,00;0,0267
3415,00;0,0267
3414,00;0,0267
3413,00;0,0267
3412,00;0,0267
3411,00;0,0267
3410,00;0,0267
3409,00;0,0267
3408,00;0,0267
3407,00;0,0267
3406,00;0,0267
3405,00;0,0267
3404,00;0,0268
3403,00;0,0268
3402,00;0,0268
3401,00;0,0268
3400,00;0,0268
3399,00;0,0268
3398,00;0,0268
3397,00;0,0268
3396,00;0,0268
3395,00;0,0268
3394,00;0,0268
3393,00;0,0268
3392,00;0,0268
3391,00;0,0268
3390,00;0,0268
3389,00;0,0268
3388,00;0,0268
3387,00;0,0268
3386,00;0,0268
3385,00;0,0268
3384,00;0,0269
3383,00;0,0269
3382,00;0,0269
3381,00;0,0269
3380,00;0,0269
3379,00;0,0269
3378,00;0,0269
3377,00;0,0269
3376,00;0,0269
3375,00;0,0269
3374,00;0,0269
3373,00;0,0269
3372,00;0,0269
3371,00;0,0269
3370,00;0,0269
3369,00;0,0269
3368,00;0,0270
3367,00;0,0270
3366,00;0,0270
3365,00;0,0270
3364,00;0,0270
3363,00;0,0270
3362,00;0,0270
3361,00;0,0270
3360,00;0,0270
3359,00;0,0270
3358,00;0,0270
3357,00;0,0270
3356,00;0,0270
3355,00;0,0270
3354,00;0,0270
3353,00;0,0270
3352,00;0,0270
3351,00;0,0270
3350,00;0,0271
3349,00;0,0271
3348,00;0,0271
3347,00;0,0271
3346,00;0,0271
3345,00;0,0271
3344,00;0,0271
3343,00;0,0272
3342,00;0,0272
3341,00;0,0272
3340,00;0,0272
3339,00;0,0272
3338,00;0,0272
3337,00;0,0272
3336,00;0,0272
3335,00;0,0272
3334,00;0,0272
3333,00;0,0272
3332,00;0,0272
3331,00;0,0272
3330,00;0,0272
3329,00;0,0272
3328,00;0,0272
3327,00;0,0272
3326,00;0,0272
3325,00;0,0273
3324,00;0,0273
3323,00;0,0273
3322,00;0,0273
3321,00;0,0273
3320,00;0,0273
3319,00;0,0273
3318,00;0,0273
3317,00;0,0273
3316,00;0,0273
3315,00;0,0273
3314,00;0,0273
3313,00;0,0273
3312,00;0,0273
3311,00;0,0273
3310,00;0,0273
3309,00;0,0273
3308,00;0,0273
3307,00;0,0273
3306,00;0,0273
3305,00;0,0273
3304,00;0,0274
3303,00;0,0274
3302,00;0,0274
3301,00;0,0274
3300,00;0,0274
3299,00;0,0274
3298,00;0,0274
3297,00;0,0274
3296,00;0,0274
3295,00;0,0274
3294,00;0,0274
3293,00;0,0274
3292,00;0,0274
3291,00;0,0275
3290,00;0,0275
3289,00;0,0275
3288,00;0,0275
3287,00;0,0275
3286,00;0,0275
3285,00;0,0275
3284,00;0,0275
3283,00;0,0275
3282,00;0,0275
3281,00;0,0275
3280,00;0,0275
3279,00;0,0275
3278,00;0,0275
3277,00;0,0275
3276,00;0,0275
3275,00;0,0275
3274,00;0,0275
3273,00;0,0275
3272,00;0,0275
3271,00;0,0275
3270,00;0,0276
3269,00;0,0276
3268,00;0,0276
3267,00;0,0276
3266,00;0,0276
3265,00;0,0276
3264,00;0,0276
3263,00;0,0276
3262,00;0,0276
3261,00;0,0276
3260,00;0,0276
3259,00;0,0276
3258,00;0,0276
3257,00;0,0276
3256,00;0,0276
3255,00;0,0276
3254,00;0,0276
3253,00;0,0276
3252,00;0,0276
3251,00;0,0277
3250,00;0,0277
3249,00;0,0277
3248,00;0,0277
3247,00;0,0277
3246,00;0,0277
3245,00;0,0277
3244,00;0,0277
3243,00;0,0277
3242,00;0,0277
3241,00;0,0277
3240,00;0,0277
3239,00;0,0277
3238,00;0,0277
3237,00;0,0277
3236,00;0,0277
3235,00;0,0277
3234,00;0,0277
3233,00;0,0277
3232,00;0,0278
3231,00;0,0278
3230,00;0,0278
3229,00;0,0278
3228,00;0,0278
3227,00;0,0278
3226,00;0,0278
3225,00;0,0278
3224,00;0,0278
3223,00;0,0278
3222,00;0,0278
3221,00;0,0278
3220,00;0,0278
3219,00;0,0279
3218,00;0,0279
3217,00;0,0279
3216,00;0,0279
3215,00;0,0279
3214,00;0,0279
3213,00;0,0279
3212,00;0,0279
3211,00;0,0279
3210,00;0,0279
3209,00;0,0279
3208,00;0,0279
3207,00;0,0279
3206,00;0,0279
3205,00;0,0280
3204,00;0,0280
3203,00;0,0280
3202,00;0,0280
3201,00;0,0280
3200,00;0,0280
3199,00;0,0280
3198,00;0,0280
3197,00;0,0280
3196,00;0,0280
3195,00;0,0280
3194,00;0,0280
3193,00;0,0280
3192,00;0,0280
3191,00;0,0280
3190,00;0,0280
3189,00;0,0280
3188,00;0,0280
3187,00;0,0280
3186,00;0,0280
3185,00;0,0280
3184,00;0,0281
3183,00;0,0281
3182,00;0,0281
3181,00;0,0281
3180,00;0,0281
3179,00;0,0281
3178,00;0,0281
3177,00;0,0281
3176,00;0,0281
3175,00;0,0281
3174,00;0,0281
3173,00;0,0281
3172,00;0,0281
3171,00;0,0281
3170,00;0,0281
3169,00;0,0281
3168,00;0,0282
3167,00;0,0282
3166,00;0,0282
3165,00;0,0282
3164,00;0,0282
3163,00;0,0282
3162,00;0,0282
3161,00;0,0282
3160,00;0,0282
3159,00;0,0282
3158,00;0,0282
3157,00;0,0282
3156,00;0,0282
3155,00;0,0282
3154,00;0,0282
3153,00;0,0282
3152,00;0,0282
3151,00;0,0282
3150,00;0,0282
3149,00;0,0282
3148,00;0,0282
3147,00;0,0282
3146,00;0,0282
3145,00;0,0282
3144,00;0,0282
3143,00;0,0282
3142,00;0,0282
3141,00;0,0283
3140,00;0,0283
3139,00;0,0283
3138,00;0,0283
3137,00;0,0283
3136,00;0,0283
3135,00;0,0283
3134,00;0,0283
3133,00;0,0283
3132,00;0,0283
3131,00;0,0283
3130,00;0,0283
3129,00;0,0283
3128,00;0,0283
3127,00;0,0283
3126,00;0,0283
3125,00;0,0283
3124,00;0,0283
3123,00;0,0283
3122,00;0,0283
3121,00;0,0283
3120,00;0,0283
3119,00;0,0283
3118,00;0,0283
3117,00;0,0283
3116,00;0,0283
3115,00;0,0284
3114,00;0,0284
3113,00;0,0284
3112,00;0,0284
3111,00;0,0284
3110,00;0,0284
3109,00;0,0284
3108,00;0,0284
3107,00;0,0284
3106,00;0,0284
3105,00;0,0284
3104,00;0,0284
3103,00;0,0284
3102,00;0,0284
3101,00;0,0284
3100,00;0,0284
3099,00;0,0284
3098,00;0,0285
3097,00;0,0285
3096,00;0,0285
3095,00;0,0285
3094,00;0,0285
3093,00;0,0285
3092,00;0,0285
3091,00;0,0285
3090,00;0,0285
3089,00;0,0285
3088,00;0,0285
3087,00;0,0285
3086,00;0,0285
3085,00;0,0285
3084,00;0,0285
3083,00;0,0285
3082,00;0,0285
3081,00;0,0285
3080,00;0,0285
3079,00;0,0286
3078,00;0,0286
3077,00;0,0286
3076,00;0,0286
3075,00;0,0286
3074,00;0,0286
3073,00;0,0286
3072,00;0,0286
3071,00;0,0286
3070,00;0,0286
3069,00;0,0286
3068,00;0,0286
3067,00;0,0286
3066,00;0,0286
3065,00;0,0286
3064,00;0,0286
3063,00;0,0286
3062,00;0,0286
3061,00;0,0286
3060,00;0,0286
3059,00;0,0286
3058,00;0,0286
3057,00;0,0286
3056,00;0,0286
3055,00;0,0286
3054,00;0,0286
3053,00;0,0287
3052,00;0,0287
3051,00;0,0287
3050,00;0,0287
3049,00;0,0287
3048,00;0,0287
3047,00;0,0286
3046,00;0,0286
3045,00;0,0286
3044,00;0,0286
3043,00;0,0286
3042,00;0,0286
3041,00;0,0286
3040,00;0,0286
3039,00;0,0286
3038,00;0,0286
3037,00;0,0286
3036,00;0,0286
3035,00;0,0286
3034,00;0,0286
3033,00;0,0286
3032,00;0,0286
3031,00;0,0286
3030,00;0,0286
3029,00;0,0287
3028,00;0,0287
3027,00;0,0287
3026,00;0,0287
3025,00;0,0287
3024,00;0,0287
3023,00;0,0287
3022,00;0,0286
3021,00;0,0286
3020,00;0,0287
3019,00;0,0287
3018,00;0,0287
3017,00;0,0287
3016,00;0,0287
3015,00;0,0287
3014,00;0,0287
3013,00;0,0288
3012,00;0,0288
3011,00;0,0289
3010,00;0,0290
3009,00;0,0290
3008,00;0,0291
3007,00;0,0291
3006,00;0,0292
3005,00;0,0292
3004,00;0,0293
3003,00;0,0294
3002,00;0,0295
3001,00;0,0296
3000,00;0,0296
2999,00;0,0297
2998,00;0,0297
2997,00;0,0298
2996,00;0,0298
2995,00;0,0298
2994,00;0,0299
2993,00;0,0299
2992,00;0,0300
2991,00;0,0300
2990,00;0,0301
2989,00;0,0301
2988,00;0,0302
2987,00;0,0302
2986,00;0,0303
2985,00;0,0305
2984,00;0,0307
2983,00;0,0309
2982,00;0,0310
2981,00;0,0310
2980,00;0,0310
2979,00;0,0309
2978,00;0,0308
2977,00;0,0307
2976,00;0,0306
2975,00;0,0306
2974,00;0,0306
2973,00;0,0307
2972,00;0,0307
2971,00;0,0306
2970,00;0,0306
2969,00;0,0305
2968,00;0,0305
2967,00;0,0304
2966,00;0,0304
2965,00;0,0304
2964,00;0,0304
2963,00;0,0304
2962,00;0,0304
2961,00;0,0304
2960,00;0,0304
2959,00;0,0304
2958,00;0,0304
2957,00;0,0304
2956,00;0,0304
2955,00;0,0303
2954,00;0,0303
2953,00;0,0303
2952,00;0,0302
2951,00;0,0302
2950,00;0,0302
2949,00;0,0301
2948,00;0,0300
2947,00;0,0299
2946,00;0,0299
2945,00;0,0298
2944,00;0,0298
2943,00;0,0298
2942,00;0,0297
2941,00;0,0297
2940,00;0,0297
2939,00;0,0297
2938,00;0,0297
2937,00;0,0297
2936,00;0,0297
2935,00;0,0297
2934,00;0,0297
2933,00;0,0297
2932,00;0,0298
2931,00;0,0298
2930,00;0,0298
2929,00;0,0298
2928,00;0,0299
2927,00;0,0299
2926,00;0,0300
2925,00;0,0301
2924,00;0,0302
2923,00;0,0302
2922,00;0,0303
2921,00;0,0303
2920,00;0,0304
2919,00;0,0304
2918,00;0,0304
2917,00;0,0304
2916,00;0,0305
2915,00;0,0305
2914,00;0,0306
2913,00;0,0306
2912,00;0,0307
2911,00;0,0308
2910,00;0,0308
2909,00;0,0308
2908,00;0,0308
2907,00;0,0308
2906,00;0,0308
2905,00;0,0308
2904,00;0,0309
2903,00;0,0309
2902,00;0,0309
2901,00;0,0308
2900,00;0,0308
2899,00;0,0308
2898,00;0,0308
2897,00;0,0308
2896,00;0,0308
2895,00;0,0309
2894,00;0,0309
2893,00;0,0309
2892,00;0,0309
2891,00;0,0309
2890,00;0,0309
2889,00;0,0309
2888,00;0,0309
2887,00;0,0309
2886,00;0,0309
2885,00;0,0309
2884,00;0,0308
2883,00;0,0308
2882,00;0,0308
2881,00;0,0307
2880,00;0,0307
2879,00;0,0306
2878,00;0,0306
2877,00;0,0305
2876,00;0,0305
2875,00;0,0305
2874,00;0,0305
2873,00;0,0306
2872,00;0,0306
2871,00;0,0306
2870,00;0,0306
2869,00;0,0306
2868,00;0,0306
2867,00;0,0306
2866,00;0,0306
2865,00;0,0305
2864,00;0,0305
2863,00;0,0305
2862,00;0,0304
2861,00;0,0304
2860,00;0,0304
2859,00;0,0303
2858,00;0,0303
2857,00;0,0303
2856,00;0,0304
2855,00;0,0304
2854,00;0,0304
2853,00;0,0304
2852,00;0,0304
2851,00;0,0305
2850,00;0,0305
2849,00;0,0305
2848,00;0,0305
2847,00;0,0306
2846,00;0,0306
2845,00;0,0306
2844,00;0,0306
2843,00;0,0306
2842,00;0,0306
2841,00;0,0306
2840,00;0,0306
2839,00;0,0305
2838,00;0,0305
2837,00;0,0305
2836,00;0,0305
2835,00;0,0305
2834,00;0,0305
2833,00;0,0305
2832,00;0,0305
2831,00;0,0304
2830,00;0,0304
2829,00;0,0304
2828,00;0,0303
2827,00;0,0303
2826,00;0,0303
2825,00;0,0303
2824,00;0,0303
2823,00;0,0303
2822,00;0,0303
2821,00;0,0303
2820,00;0,0302
2819,00;0,0302
2818,00;0,0302
2817,00;0,0302
2816,00;0,0302
2815,00;0,0302
2814,00;0,0302
2813,00;0,0302
2812,00;0,0302
2811,00;0,0302
2810,00;0,0301
2809,00;0,0301
2808,00;0,0302
2807,00;0,0302
2806,00;0,0302
2805,00;0,0302
2804,00;0,0301
2803,00;0,0301
2802,00;0,0301
2801,00;0,0301
2800,00;0,0301
2799,00;0,0301
2798,00;0,0301
2797,00;0,0301
2796,00;0,0301
2795,00;0,0301
2794,00;0,0301
2793,00;0,0301
2792,00;0,0300
2791,00;0,0300
2790,00;0,0300
2789,00;0,0300
2788,00;0,0300
2787,00;0,0300
2786,00;0,0300
2785,00;0,0300
2784,00;0,0300
2783,00;0,0300
2782,00;0,0300
2781,00;0,0300
2780,00;0,0300
2779,00;0,0300
2778,00;0,0300
2777,00;0,0300
2776,00;0,0300
2775,00;0,0300
2774,00;0,0300
2773,00;0,0300
2772,00;0,0300
2771,00;0,0300
2770,00;0,0300
2769,00;0,0300
2768,00;0,0300
2767,00;0,0300
2766,00;0,0300
2765,00;0,0300
2764,00;0,0300
2763,00;0,0300
2762,00;0,0300
2761,00;0,0300
2760,00;0,0300
2759,00;0,0300
2758,00;0,0300
2757,00;0,0300
2756,00;0,0300
2755,00;0,0299
2754,00;0,0299
2753,00;0,0299
2752,00;0,0299
2751,00;0,0299
2750,00;0,0299
2749,00;0,0299
2748,00;0,0299
2747,00;0,0299
2746,00;0,0299
2745,00;0,0299
2744,00;0,0299
2743,00;0,0299
2742,00;0,0299
2741,00;0,0299
2740,00;0,0299
2739,00;0,0299
2738,00;0,0299
2737,00;0,0299
2736,00;0,0299
2735,00;0,0299
2734,00;0,0299
2733,00;0,0299
2732,00;0,0299
2731,00;0,0299
2730,00;0,0299
2729,00;0,0299
2728,00;0,0299
2727,00;0,0299
2726,00;0,0299
2725,00;0,0299
2724,00;0,0299
2723,00;0,0299
2722,00;0,0299
2721,00;0,0299
2720,00;0,0299
2719,00;0,0299
2718,00;0,0299
2717,00;0,0299
2716,00;0,0299
2715,00;0,0299
2714,00;0,0299
2713,00;0,0299
2712,00;0,0299
2711,00;0,0299
2710,00;0,0299
2709,00;0,0299
2708,00;0,0299
2707,00;0,0299
2706,00;0,0299
2705,00;0,0299
2704,00;0,0299
2703,00;0,0299
2702,00;0,0299
2701,00;0,0299
2700,00;0,0299
2699,00;0,0299
2698,00;0,0299
2697,00;0,0299
2696,00;0,0299
2695,00;0,0299
2694,00;0,0299
2693,00;0,0299
2692,00;0,0299
2691,00;0,0299
2690,00;0,0299
2689,00;0,0299
2688,00;0,0299
2687,00;0,0299
2686,00;0,0299
2685,00;0,0299
2684,00;0,0299
2683,00;0,0299
2682,00;0,0299
2681,00;0,0299
2680,00;0,0299
2679,00;0,0299
2678,00;0,0299
2677,00;0,0299
2676,00;0,0299
2675,00;0,0299
