Создан как новый массив данных;Образец 009 полученный BalashovM Дата пятница, апреля 21 2023
cm-1;A
4000,00;0,0261
3999,00;0,0261
3998,00;0,0261
3997,00;0,0261
3996,00;0,0261
3995,00;0,0261
3994,00;0,0261
3993,00;0,0261
3992,00;0,0261
3991,00;0,0261
3990,00;0,0261
3989,00;0,0261
3988,00;0,0261
3987,00;0,0261
3986,00;0,0261
3985,00;0,0261
3984,00;0,0261
3983,00;0,0261
3982,00;0,0261
3981,00;0,0261
3980,00;0,0262
3979,00;0,0262
3978,00;0,0262
3977,00;0,0262
3976,00;0,0262
3975,00;0,0262
3974,00;0,0262
3973,00;0,0262
3972,00;0,0262
3971,00;0,0262
3970,00;0,0262
3969,00;0,0262
3968,00;0,0262
3967,00;0,0262
3966,00;0,0262
3965,00;0,0262
3964,00;0,0262
3963,00;0,0262
3962,00;0,0262
3961,00;0,0262
3960,00;0,0262
3959,00;0,0262
3958,00;0,0262
3957,00;0,0262
3956,00;0,0262
3955,00;0,0263
3954,00;0,0263
3953,00;0,0263
3952,00;0,0263
3951,00;0,0263
3950,00;0,0263
3949,00;0,0263
3948,00;0,0263
3947,00;0,0263
3946,00;0,0263
3945,00;0,0263
3944,00;0,0263
3943,00;0,0263
3942,00;0,0263
3941,00;0,0263
3940,00;0,0263
3939,00;0,0263
3938,00;0,0263
3937,00;0,0264
3936,00;0,0264
3935,00;0,0265
3934,00;0,0265
3933,00;0,0264
3932,00;0,0264
3931,00;0,0264
3930,00;0,0264
3929,00;0,0264
3928,00;0,0264
3927,00;0,0264
3926,00;0,0264
3925,00;0,0264
3924,00;0,0265
3923,00;0,0265
3922,00;0,0265
3921,00;0,0265
3920,00;0,0265
3919,00;0,0265
3918,00;0,0265
3917,00;0,0265
3916,00;0,0264
3915,00;0,0264
3914,00;0,0264
3913,00;0,0264
3912,00;0,0264
3911,00;0,0264
3910,00;0,0265
3909,00;0,0265
3908,00;0,0265
3907,00;0,0265
3906,00;0,0264
3905,00;0,0264
3904,00;0,0264
3903,00;0,0264
3902,00;0,0264
3901,00;0,0263
3900,00;0,0263
3899,00;0,0264
3898,00;0,0264
3897,00;0,0265
3896,00;0,0265
3895,00;0,0265
3894,00;0,0265
3893,00;0,0265
3892,00;0,0265
3891,00;0,0265
3890,00;0,0266
3889,00;0,0266
3888,00;0,0265
3887,00;0,0265
3886,00;0,0265
3885,00;0,0265
3884,00;0,0265
3883,00;0,0265
3882,00;0,0264
3881,00;0,0264
3880,00;0,0265
3879,00;0,0266
3878,00;0,0267
3877,00;0,0266
3876,00;0,0266
3875,00;0,0266
3874,00;0,0266
3873,00;0,0267
3872,00;0,0266
3871,00;0,0265
3870,00;0,0265
3869,00;0,0264
3868,00;0,0264
3867,00;0,0264
3866,00;0,0263
3865,00;0,0264
3864,00;0,0265
3863,00;0,0265
3862,00;0,0266
3861,00;0,0266
3860,00;0,0267
3859,00;0,0267
3858,00;0,0268
3857,00;0,0268
3856,00;0,0267
3855,00;0,0267
3854,00;0,0266
3853,00;0,0266
3852,00;0,0266
3851,00;0,0266
3850,00;0,0265
3849,00;0,0265
3848,00;0,0266
3847,00;0,0267
3846,00;0,0267
3845,00;0,0268
3844,00;0,0268
3843,00;0,0268
3842,00;0,0268
3841,00;0,0267
3840,00;0,0267
3839,00;0,0266
3838,00;0,0266
3837,00;0,0266
3836,00;0,0266
3835,00;0,0266
3834,00;0,0266
3833,00;0,0266
3832,00;0,0266
3831,00;0,0267
3830,00;0,0267
3829,00;0,0267
3828,00;0,0267
3827,00;0,0267
3826,00;0,0267
3825,00;0,0268
3824,00;0,0268
3823,00;0,0268
3822,00;0,0267
3821,00;0,0268
3820,00;0,0268
3819,00;0,0268
3818,00;0,0268
3817,00;0,0268
3816,00;0,0268
3815,00;0,0269
3814,00;0,0269
3813,00;0,0269
3812,00;0,0269
3811,00;0,0269
3810,00;0,0269
3809,00;0,0269
3808,00;0,0268
3807,00;0,0269
3806,00;0,0269
3805,00;0,0269
3804,00;0,0269
3803,00;0,0268
3802,00;0,0268
3801,00;0,0268
3800,00;0,0268
3799,00;0,0268
3798,00;0,0267
3797,00;0,0268
3796,00;0,0268
3795,00;0,0269
3794,00;0,0270
3793,00;0,0270
3792,00;0,0270
3791,00;0,0270
3790,00;0,0271
3789,00;0,0271
3788,00;0,0271
3787,00;0,0271
3786,00;0,0271
3785,00;0,0271
3784,00;0,0271
3783,00;0,0271
3782,00;0,0270
3781,00;0,0270
3780,00;0,0270
3779,00;0,0270
3778,00;0,0271
3777,00;0,0271
3776,00;0,0271
3775,00;0,0272
3774,00;0,0272
3773,00;0,0272
3772,00;0,0272
3771,00;0,0271
3770,00;0,0271
3769,00;0,0271
3768,00;0,0271
3767,00;0,0270
3766,00;0,0270
3765,00;0,0271
3764,00;0,0271
3763,00;0,0272
3762,00;0,0272
3761,00;0,0272
3760,00;0,0272
3759,00;0,0272
3758,00;0,0272
3757,00;0,0272
3756,00;0,0272
3755,00;0,0272
3754,00;0,0273
3753,00;0,0273
3752,00;0,0273
3751,00;0,0272
3750,00;0,0271
3749,00;0,0271
3748,00;0,0271
3747,00;0,0270
3746,00;0,0270
3745,00;0,0270
3744,00;0,0270
3743,00;0,0271
3742,00;0,0271
3741,00;0,0271
3740,00;0,0272
3739,00;0,0273
3738,00;0,0273
3737,00;0,0273
3736,00;0,0272
3735,00;0,0272
3734,00;0,0271
3733,00;0,0271
3732,00;0,0271
3731,00;0,0272
3730,00;0,0273
3729,00;0,0273
3728,00;0,0273
3727,00;0,0273
3726,00;0,0274
3725,00;0,0274
3724,00;0,0274
3723,00;0,0274
3722,00;0,0274
3721,00;0,0274
3720,00;0,0274
3719,00;0,0273
3718,00;0,0273
3717,00;0,0273
3716,00;0,0273
3715,00;0,0273
3714,00;0,0273
3713,00;0,0273
3712,00;0,0273
3711,00;0,0272
3710,00;0,0272
3709,00;0,0272
3708,00;0,0272
3707,00;0,0272
3706,00;0,0273
3705,00;0,0273
3704,00;0,0273
3703,00;0,0273
3702,00;0,0273
3701,00;0,0273
3700,00;0,0273
3699,00;0,0273
3698,00;0,0274
3697,00;0,0274
3696,00;0,0274
3695,00;0,0275
3694,00;0,0275
3693,00;0,0275
3692,00;0,0275
3691,00;0,0275
3690,00;0,0274
3689,00;0,0273
3688,00;0,0273
3687,00;0,0272
3686,00;0,0272
3685,00;0,0272
3684,00;0,0272
3683,00;0,0273
3682,00;0,0274
3681,00;0,0274
3680,00;0,0274
3679,00;0,0275
3678,00;0,0275
3677,00;0,0275
3676,00;0,0274
3675,00;0,0274
3674,00;0,0274
3673,00;0,0274
3672,00;0,0273
3671,00;0,0273
3670,00;0,0273
3669,00;0,0273
3668,00;0,0273
3667,00;0,0273
3666,00;0,0273
3665,00;0,0274
3664,00;0,0274
3663,00;0,0275
3662,00;0,0275
3661,00;0,0276
3660,00;0,0276
3659,00;0,0276
3658,00;0,0276
3657,00;0,0275
3656,00;0,0275
3655,00;0,0275
3654,00;0,0275
3653,00;0,0275
3652,00;0,0274
3651,00;0,0274
3650,00;0,0274
3649,00;0,0274
3648,00;0,0274
3647,00;0,0274
3646,00;0,0274
3645,00;0,0274
3644,00;0,0275
3643,00;0,0275
3642,00;0,0276
3641,00;0,0276
3640,00;0,0277
3639,00;0,0277
3638,00;0,0277
3637,00;0,0277
3636,00;0,0277
3635,00;0,0277
3634,00;0,0277
3633,00;0,0278
3632,00;0,0277
3631,00;0,0277
3630,00;0,0275
3629,00;0,0275
3628,00;0,0275
3627,00;0,0275
3626,00;0,0275
3625,00;0,0276
3624,00;0,0276
3623,00;0,0277
3622,00;0,0277
3621,00;0,0277
3620,00;0,0277
3619,00;0,0278
3618,00;0,0278
3617,00;0,0278
3616,00;0,0278
3615,00;0,0277
3614,00;0,0277
3613,00;0,0277
3612,00;0,0277
3611,00;0,0278
3610,00;0,0278
3609,00;0,0278
3608,00;0,0278
3607,00;0,0278
3606,00;0,0278
3605,00;0,0278
3604,00;0,0278
3603,00;0,0278
3602,00;0,0278
3601,00;0,0278
3600,00;0,0278
3599,00;0,0278
3598,00;0,0279
3597,00;0,0279
3596,00;0,0279
3595,00;0,0279
3594,00;0,0279
3593,00;0,0279
3592,00;0,0280
3591,00;0,0280
3590,00;0,0280
3589,00;0,0279
3588,00;0,0279
3587,00;0,0278
3586,00;0,0278
3585,00;0,0278
3584,00;0,0278
3583,00;0,0278
3582,00;0,0278
3581,00;0,0279
3580,00;0,0279
3579,00;0,0280
3578,00;0,0280
3577,00;0,0281
3576,00;0,0281
3575,00;0,0281
3574,00;0,0281
3573,00;0,0281
3572,00;0,0281
3571,00;0,0281
3570,00;0,0281
3569,00;0,0281
3568,00;0,0281
3567,00;0,0280
3566,00;0,0280
3565,00;0,0279
3564,00;0,0280
3563,00;0,0280
3562,00;0,0280
3561,00;0,0281
3560,00;0,0281
3559,00;0,0281
3558,00;0,0281
3557,00;0,0281
3556,00;0,0281
3555,00;0,0281
3554,00;0,0281
3553,00;0,0281
3552,00;0,0281
3551,00;0,0282
3550,00;0,0282
3549,00;0,0282
3548,00;0,0282
3547,00;0,0282
3546,00;0,0282
3545,00;0,0282
3544,00;0,0281
3543,00;0,0282
3542,00;0,0282
3541,00;0,0282
3540,00;0,0282
3539,00;0,0282
3538,00;0,0283
3537,00;0,0283
3536,00;0,0283
3535,00;0,0283
3534,00;0,0284
3533,00;0,0284
3532,00;0,0284
3531,00;0,0284
3530,00;0,0284
3529,00;0,0284
3528,00;0,0284
3527,00;0,0284
3526,00;0,0284
3525,00;0,0284
3524,00;0,0284
3523,00;0,0284
3522,00;0,0284
3521,00;0,0285
3520,00;0,0285
3519,00;0,0284
3518,00;0,0284
3517,00;0,0284
3516,00;0,0284
3515,00;0,0285
3514,00;0,0285
3513,00;0,0285
3512,00;0,0285
3511,00;0,0285
3510,00;0,0285
3509,00;0,0286
3508,00;0,0286
3507,00;0,0286
3506,00;0,0287
3505,00;0,0287
3504,00;0,0286
3503,00;0,0286
3502,00;0,0286
3501,00;0,0286
3500,00;0,0286
3499,00;0,0286
3498,00;0,0286
3497,00;0,0286
3496,00;0,0286
3495,00;0,0287
3494,00;0,0287
3493,00;0,0287
3492,00;0,0287
3491,00;0,0287
3490,00;0,0287
3489,00;0,0287
3488,00;0,0287
3487,00;0,0287
3486,00;0,0287
3485,00;0,0287
3484,00;0,0287
3483,00;0,0287
3482,00;0,0287
3481,00;0,0287
3480,00;0,0287
3479,00;0,0288
3478,00;0,0288
3477,00;0,0288
3476,00;0,0289
3475,00;0,0289
3474,00;0,0288
3473,00;0,0288
3472,00;0,0288
3471,00;0,0288
3470,00;0,0288
3469,00;0,0288
3468,00;0,0288
3467,00;0,0288
3466,00;0,0289
3465,00;0,0289
3464,00;0,0290
3463,00;0,0290
3462,00;0,0290
3461,00;0,0290
3460,00;0,0290
3459,00;0,0290
3458,00;0,0290
3457,00;0,0290
3456,00;0,0290
3455,00;0,0290
3454,00;0,0290
3453,00;0,0290
3452,00;0,0290
3451,00;0,0290
3450,00;0,0291
3449,00;0,0291
3448,00;0,0291
3447,00;0,0291
3446,00;0,0291
3445,00;0,0291
3444,00;0,0290
3443,00;0,0290
3442,00;0,0290
3441,00;0,0290
3440,00;0,0291
3439,00;0,0291
3438,00;0,0291
3437,00;0,0291
3436,00;0,0291
3435,00;0,0291
3434,00;0,0291
3433,00;0,0291
3432,00;0,0291
3431,00;0,0291
3430,00;0,0291
3429,00;0,0291
3428,00;0,0291
3427,00;0,0292
3426,00;0,0292
3425,00;0,0292
3424,00;0,0291
3423,00;0,0291
3422,00;0,0291
3421,00;0,0291
3420,00;0,0291
3419,00;0,0292
3418,00;0,0292
3417,00;0,0292
3416,00;0,0292
3415,00;0,0292
3414,00;0,0292
3413,00;0,0292
3412,00;0,0292
3411,00;0,0292
3410,00;0,0293
3409,00;0,0293
3408,00;0,0293
3407,00;0,0293
3406,00;0,0293
3405,00;0,0293
3404,00;0,0292
3403,00;0,0292
3402,00;0,0291
3401,00;0,0292
3400,00;0,0292
3399,00;0,0292
3398,00;0,0293
3397,00;0,0293
3396,00;0,0293
3395,00;0,0293
3394,00;0,0293
3393,00;0,0293
3392,00;0,0293
3391,00;0,0293
3390,00;0,0293
3389,00;0,0293
3388,00;0,0293
3387,00;0,0294
3386,00;0,0294
3385,00;0,0294
3384,00;0,0295
3383,00;0,0295
3382,00;0,0295
3381,00;0,0295
3380,00;0,0295
3379,00;0,0295
3378,00;0,0295
3377,00;0,0295
3376,00;0,0295
3375,00;0,0295
3374,00;0,0294
3373,00;0,0294
3372,00;0,0294
3371,00;0,0294
3370,00;0,0294
3369,00;0,0294
3368,00;0,0295
3367,00;0,0295
3366,00;0,0296
3365,00;0,0296
3364,00;0,0296
3363,00;0,0296
3362,00;0,0296
3361,00;0,0296
3360,00;0,0296
3359,00;0,0297
3358,00;0,0297
3357,00;0,0297
3356,00;0,0297
3355,00;0,0297
3354,00;0,0297
3353,00;0,0296
3352,00;0,0296
3351,00;0,0297
3350,00;0,0297
3349,00;0,0297
3348,00;0,0297
3347,00;0,0298
3346,00;0,0298
3345,00;0,0298
3344,00;0,0298
3343,00;0,0298
3342,00;0,0298
3341,00;0,0298
3340,00;0,0298
3339,00;0,0298
3338,00;0,0298
3337,00;0,0299
3336,00;0,0299
3335,00;0,0299
3334,00;0,0299
3333,00;0,0298
3332,00;0,0298
3331,00;0,0298
3330,00;0,0298
3329,00;0,0298
3328,00;0,0298
3327,00;0,0298
3326,00;0,0298
3325,00;0,0298
3324,00;0,0299
3323,00;0,0299
3322,00;0,0299
3321,00;0,0300
3320,00;0,0300
3319,00;0,0300
3318,00;0,0300
3317,00;0,0300
3316,00;0,0300
3315,00;0,0300
3314,00;0,0300
3313,00;0,0300
3312,00;0,0300
3311,00;0,0300
3310,00;0,0300
3309,00;0,0300
3308,00;0,0300
3307,00;0,0300
3306,00;0,0300
3305,00;0,0300
3304,00;0,0300
3303,00;0,0300
3302,00;0,0300
3301,00;0,0300
3300,00;0,0300
3299,00;0,0300
3298,00;0,0300
3297,00;0,0300
3296,00;0,0301
3295,00;0,0300
3294,00;0,0300
3293,00;0,0300
3292,00;0,0301
3291,00;0,0301
3290,00;0,0301
3289,00;0,0302
3288,00;0,0302
3287,00;0,0302
3286,00;0,0302
3285,00;0,0302
3284,00;0,0302
3283,00;0,0302
3282,00;0,0303
3281,00;0,0303
3280,00;0,0303
3279,00;0,0303
3278,00;0,0302
3277,00;0,0302
3276,00;0,0302
3275,00;0,0302
3274,00;0,0302
3273,00;0,0303
3272,00;0,0303
3271,00;0,0303
3270,00;0,0304
3269,00;0,0304
3268,00;0,0304
3267,00;0,0304
3266,00;0,0304
3265,00;0,0304
3264,00;0,0304
3263,00;0,0304
3262,00;0,0304
3261,00;0,0304
3260,00;0,0304
3259,00;0,0304
3258,00;0,0304
3257,00;0,0304
3256,00;0,0304
3255,00;0,0304
3254,00;0,0304
3253,00;0,0304
3252,00;0,0304
3251,00;0,0304
3250,00;0,0304
3249,00;0,0304
3248,00;0,0305
3247,00;0,0305
3246,00;0,0305
3245,00;0,0305
3244,00;0,0305
3243,00;0,0305
3242,00;0,0305
3241,00;0,0306
3240,00;0,0306
3239,00;0,0306
3238,00;0,0306
3237,00;0,0306
3236,00;0,0306
3235,00;0,0305
3234,00;0,0305
3233,00;0,0304
3232,00;0,0305
3231,00;0,0305
3230,00;0,0305
3229,00;0,0305
3228,00;0,0305
3227,00;0,0305
3226,00;0,0306
3225,00;0,0306
3224,00;0,0306
3223,00;0,0306
3222,00;0,0305
3221,00;0,0305
3220,00;0,0305
3219,00;0,0305
3218,00;0,0306
3217,00;0,0306
3216,00;0,0306
3215,00;0,0306
3214,00;0,0306
3213,00;0,0306
3212,00;0,0307
3211,00;0,0307
3210,00;0,0307
3209,00;0,0307
3208,00;0,0307
3207,00;0,0307
3206,00;0,0307
3205,00;0,0307
3204,00;0,0307
3203,00;0,0308
3202,00;0,0308
3201,00;0,0308
3200,00;0,0308
3199,00;0,0308
3198,00;0,0308
3197,00;0,0308
3196,00;0,0308
3195,00;0,0308
3194,00;0,0308
3193,00;0,0308
3192,00;0,0308
3191,00;0,0308
3190,00;0,0308
3189,00;0,0308
3188,00;0,0309
3187,00;0,0309
3186,00;0,0310
3185,00;0,0310
3184,00;0,0310
3183,00;0,0309
3182,00;0,0309
3181,00;0,0309
3180,00;0,0309
3179,00;0,0309
3178,00;0,0309
3177,00;0,0309
3176,00;0,0309
3175,00;0,0309
3174,00;0,0309
3173,00;0,0310
3172,00;0,0310
3171,00;0,0310
3170,00;0,0310
3169,00;0,0310
3168,00;0,0310
3167,00;0,0311
3166,00;0,0311
3165,00;0,0311
3164,00;0,0311
3163,00;0,0311
3162,00;0,0312
3161,00;0,0312
3160,00;0,0312
3159,00;0,0312
3158,00;0,0312
3157,00;0,0311
3156,00;0,0311
3155,00;0,0311
3154,00;0,0310
3153,00;0,0310
3152,00;0,0311
3151,00;0,0311
3150,00;0,0312
3149,00;0,0312
3148,00;0,0312
3147,00;0,0312
3146,00;0,0312
3145,00;0,0312
3144,00;0,0312
3143,00;0,0313
3142,00;0,0312
3141,00;0,0312
3140,00;0,0312
3139,00;0,0312
3138,00;0,0312
3137,00;0,0313
3136,00;0,0313
3135,00;0,0313
3134,00;0,0314
3133,00;0,0314
3132,00;0,0314
3131,00;0,0314
3130,00;0,0313
3129,00;0,0314
3128,00;0,0314
3127,00;0,0314
3126,00;0,0314
3125,00;0,0313
3124,00;0,0313
3123,00;0,0313
3122,00;0,0312
3121,00;0,0312
3120,00;0,0312
3119,00;0,0313
3118,00;0,0313
3117,00;0,0313
3116,00;0,0314
3115,00;0,0314
3114,00;0,0315
3113,00;0,0315
3112,00;0,0315
3111,00;0,0315
3110,00;0,0315
3109,00;0,0315
3108,00;0,0315
3107,00;0,0315
3106,00;0,0315
3105,00;0,0316
3104,00;0,0316
3103,00;0,0316
3102,00;0,0316
3101,00;0,0316
3100,00;0,0316
3099,00;0,0316
3098,00;0,0316
3097,00;0,0316
3096,00;0,0317
3095,00;0,0317
3094,00;0,0317
3093,00;0,0317
3092,00;0,0317
3091,00;0,0317
3090,00;0,0317
3089,00;0,0317
3088,00;0,0317
3087,00;0,0317
3086,00;0,0317
3085,00;0,0317
3084,00;0,0317
3083,00;0,0317
3082,00;0,0317
3081,00;0,0316
3080,00;0,0316
3079,00;0,0317
3078,00;0,0317
3077,00;0,0318
3076,00;0,0318
3075,00;0,0319
3074,00;0,0319
3073,00;0,0319
3072,00;0,0320
3071,00;0,0320
3070,00;0,0320
3069,00;0,0319
3068,00;0,0319
3067,00;0,0319
3066,00;0,0319
3065,00;0,0319
3064,00;0,0320
3063,00;0,0320
3062,00;0,0320
3061,00;0,0320
3060,00;0,0320
3059,00;0,0320
3058,00;0,0321
3057,00;0,0321
3056,00;0,0321
3055,00;0,0321
3054,00;0,0321
3053,00;0,0321
3052,00;0,0321
3051,00;0,0321
3050,00;0,0322
3049,00;0,0322
3048,00;0,0322
3047,00;0,0322
3046,00;0,0322
3045,00;0,0322
3044,00;0,0322
3043,00;0,0322
3042,00;0,0322
3041,00;0,0323
3040,00;0,0323
3039,00;0,0323
3038,00;0,0323
3037,00;0,0323
3036,00;0,0323
3035,00;0,0324
3034,00;0,0324
3033,00;0,0325
3032,00;0,0325
3031,00;0,0325
3030,00;0,0326
3029,00;0,0326
3028,00;0,0326
3027,00;0,0326
3026,00;0,0326
3025,00;0,0326
3024,00;0,0326
3023,00;0,0326
3022,00;0,0326
3021,00;0,0326
3020,00;0,0326
3019,00;0,0326
3018,00;0,0326
3017,00;0,0326
3016,00;0,0325
3015,00;0,0325
3014,00;0,0325
3013,00;0,0326
3012,00;0,0326
3011,00;0,0326
3010,00;0,0327
3009,00;0,0327
3008,00;0,0327
3007,00;0,0327
3006,00;0,0327
3005,00;0,0327
3004,00;0,0327
3003,00;0,0327
3002,00;0,0327
3001,00;0,0328
3000,00;0,0328
2999,00;0,0328
2998,00;0,0328
2997,00;0,0327
2996,00;0,0327
2995,00;0,0327
2994,00;0,0327
2993,00;0,0327
2992,00;0,0327
2991,00;0,0327
2990,00;0,0327
2989,00;0,0327
2988,00;0,0327
2987,00;0,0327
2986,00;0,0327
2985,00;0,0327
2984,00;0,0327
2983,00;0,0326
2982,00;0,0326
2981,00;0,0326
2980,00;0,0326
2979,00;0,0327
2978,00;0,0327
2977,00;0,0327
2976,00;0,0328
2975,00;0,0328
2974,00;0,0329
2973,00;0,0330
2972,00;0,0331
2971,00;0,0332
2970,00;0,0331
2969,00;0,0331
2968,00;0,0330
2967,00;0,0329
2966,00;0,0329
2965,00;0,0328
2964,00;0,0328
2963,00;0,0328
2962,00;0,0328
2961,00;0,0327
2960,00;0,0327
2959,00;0,0327
2958,00;0,0327
2957,00;0,0327
2956,00;0,0327
2955,00;0,0327
2954,00;0,0327
2953,00;0,0327
2952,00;0,0327
2951,00;0,0328
2950,00;0,0328
2949,00;0,0328
2948,00;0,0327
2947,00;0,0327
2946,00;0,0327
2945,00;0,0327
2944,00;0,0327
2943,00;0,0327
2942,00;0,0327
2941,00;0,0327
2940,00;0,0326
2939,00;0,0326
2938,00;0,0326
2937,00;0,0325
2936,00;0,0325
2935,00;0,0325
2934,00;0,0325
2933,00;0,0325
2932,00;0,0324
2931,00;0,0324
2930,00;0,0324
2929,00;0,0323
2928,00;0,0323
2927,00;0,0323
2926,00;0,0323
2925,00;0,0323
2924,00;0,0323
2923,00;0,0323
2922,00;0,0323
2921,00;0,0323
2920,00;0,0323
2919,00;0,0323
2918,00;0,0324
2917,00;0,0324
2916,00;0,0325
2915,00;0,0325
2914,00;0,0326
2913,00;0,0327
2912,00;0,0328
2911,00;0,0328
2910,00;0,0329
2909,00;0,0329
2908,00;0,0329
2907,00;0,0329
2906,00;0,0329
2905,00;0,0329
2904,00;0,0329
2903,00;0,0329
2902,00;0,0330
2901,00;0,0330
2900,00;0,0330
2899,00;0,0331
2898,00;0,0331
2897,00;0,0331
2896,00;0,0331
2895,00;0,0331
2894,00;0,0331
2893,00;0,0331
2892,00;0,0332
2891,00;0,0332
2890,00;0,0332
2889,00;0,0332
2888,00;0,0333
2887,00;0,0333
2886,00;0,0333
2885,00;0,0333
2884,00;0,0333
2883,00;0,0333
2882,00;0,0334
2881,00;0,0334
2880,00;0,0334
2879,00;0,0333
2878,00;0,0333
2877,00;0,0333
2876,00;0,0333
2875,00;0,0333
2874,00;0,0333
2873,00;0,0333
2872,00;0,0334
2871,00;0,0334
2870,00;0,0335
2869,00;0,0334
2868,00;0,0334
2867,00;0,0334
2866,00;0,0334
2865,00;0,0334
2864,00;0,0334
2863,00;0,0334
2862,00;0,0333
2861,00;0,0333
2860,00;0,0332
2859,00;0,0332
2858,00;0,0332
2857,00;0,0332
2856,00;0,0332
2855,00;0,0332
2854,00;0,0332
2853,00;0,0332
2852,00;0,0332
2851,00;0,0333
2850,00;0,0333
2849,00;0,0333
2848,00;0,0334
2847,00;0,0335
2846,00;0,0335
2845,00;0,0336
2844,00;0,0336
2843,00;0,0337
2842,00;0,0337
2841,00;0,0337
2840,00;0,0337
2839,00;0,0337
2838,00;0,0337
2837,00;0,0337
2836,00;0,0337
2835,00;0,0338
2834,00;0,0338
2833,00;0,0339
2832,00;0,0339
2831,00;0,0339
2830,00;0,0339
2829,00;0,0339
2828,00;0,0340
2827,00;0,0340
2826,00;0,0340
2825,00;0,0340
2824,00;0,0340
2823,00;0,0340
2822,00;0,0340
2821,00;0,0340
2820,00;0,0340
2819,00;0,0340
2818,00;0,0340
2817,00;0,0340
2816,00;0,0340
2815,00;0,0341
2814,00;0,0341
2813,00;0,0341
2812,00;0,0341
2811,00;0,0341
2810,00;0,0341
2809,00;0,0341
2808,00;0,0341
2807,00;0,0342
2806,00;0,0342
2805,00;0,0342
2804,00;0,0342
2803,00;0,0342
2802,00;0,0342
2801,00;0,0342
2800,00;0,0342
2799,00;0,0342
2798,00;0,0342
2797,00;0,0342
2796,00;0,0342
2795,00;0,0343
2794,00;0,0343
2793,00;0,0343
2792,00;0,0343
2791,00;0,0343
2790,00;0,0343
2789,00;0,0343
2788,00;0,0343
2787,00;0,0343
2786,00;0,0344
2785,00;0,0344
2784,00;0,0344
2783,00;0,0343
2782,00;0,0343
2781,00;0,0343
2780,00;0,0343
2779,00;0,0343
2778,00;0,0344
2777,00;0,0344
2776,00;0,0344
2775,00;0,0344
2774,00;0,0344
2773,00;0,0345
2772,00;0,0345
2771,00;0,0345
2770,00;0,0345
2769,00;0,0345
2768,00;0,0345
2767,00;0,0345
2766,00;0,0345
2765,00;0,0345
2764,00;0,0345
2763,00;0,0345
2762,00;0,0345
2761,00;0,0345
2760,00;0,0346
2759,00;0,0346
2758,00;0,0346
2757,00;0,0346
2756,00;0,0346
2755,00;0,0346
2754,00;0,0346
2753,00;0,0346
2752,00;0,0346
2751,00;0,0346
2750,00;0,0346
2749,00;0,0346
2748,00;0,0346
2747,00;0,0346
2746,00;0,0347
2745,00;0,0347
2744,00;0,0347
2743,00;0,0347
2742,00;0,0347
2741,00;0,0348
2740,00;0,0349
2739,00;0,0349
2738,00;0,0349
2737,00;0,0349
2736,00;0,0349
2735,00;0,0348
2734,00;0,0348
2733,00;0,0348
2732,00;0,0348
2731,00;0,0349
2730,00;0,0349
2729,00;0,0348
2728,00;0,0348
2727,00;0,0348
2726,00;0,0348
2725,00;0,0348
2724,00;0,0349
2723,00;0,0349
2722,00;0,0349
2721,00;0,0349
2720,00;0,0349
2719,00;0,0349
2718,00;0,0350
2717,00;0,0350
2716,00;0,0350
2715,00;0,0350
2714,00;0,0350
2713,00;0,0350
2712,00;0,0350
2711,00;0,0350
2710,00;0,0350
2709,00;0,0351
2708,00;0,0351
2707,00;0,0351
2706,00;0,0351
2705,00;0,0351
2704,00;0,0351
2703,00;0,0351
2702,00;0,0351
2701,00;0,0352
2700,00;0,0352
2699,00;0,0352
2698,00;0,0352
2697,00;0,0352
2696,00;0,0351
2695,00;0,0351
2694,00;0,0351
2693,00;0,0351
2692,00;0,0351
2691,00;0,0352
2690,00;0,0352
2689,00;0,0352
2688,00;0,0353
2687,00;0,0353
2686,00;0,0353
2685,00;0,0353
2684,00;0,0353
2683,00;0,0353
2682,00;0,0353
2681,00;0,0353
2680,00;0,0353
2679,00;0,0353
2678,00;0,0353
2677,00;0,0353
2676,00;0,0354
2675,00;0,0354
