Создан как новый массив данных;Образец 010 полученный BalashovM Дата пятница, апреля 21 2023
cm-1;A
4000,00;0,0233
3999,00;0,0233
3998,00;0,0233
3997,00;0,0234
3996,00;0,0234
3995,00;0,0234
3994,00;0,0234
3993,00;0,0234
3992,00;0,0234
3991,00;0,0234
3990,00;0,0234
3989,00;0,0234
3988,00;0,0234
3987,00;0,0233
3986,00;0,0233
3985,00;0,0233
3984,00;0,0233
3983,00;0,0233
3982,00;0,0234
3981,00;0,0234
3980,00;0,0234
3979,00;0,0234
3978,00;0,0234
3977,00;0,0234
3976,00;0,0234
3975,00;0,0234
3974,00;0,0234
3973,00;0,0234
3972,00;0,0235
3971,00;0,0235
3970,00;0,0235
3969,00;0,0235
3968,00;0,0234
3967,00;0,0234
3966,00;0,0234
3965,00;0,0234
3964,00;0,0234
3963,00;0,0234
3962,00;0,0234
3961,00;0,0234
3960,00;0,0234
3959,00;0,0234
3958,00;0,0234
3957,00;0,0234
3956,00;0,0234
3955,00;0,0234
3954,00;0,0234
3953,00;0,0234
3952,00;0,0233
3951,00;0,0233
3950,00;0,0234
3949,00;0,0234
3948,00;0,0234
3947,00;0,0234
3946,00;0,0234
3945,00;0,0234
3944,00;0,0234
3943,00;0,0234
3942,00;0,0235
3941,00;0,0235
3940,00;0,0235
3939,00;0,0235
3938,00;0,0236
3937,00;0,0236
3936,00;0,0236
3935,00;0,0236
3934,00;0,0236
3933,00;0,0235
3932,00;0,0235
3931,00;0,0235
3930,00;0,0235
3929,00;0,0235
3928,00;0,0235
3927,00;0,0235
3926,00;0,0235
3925,00;0,0236
3924,00;0,0236
3923,00;0,0236
3922,00;0,0235
3921,00;0,0235
3920,00;0,0235
3919,00;0,0235
3918,00;0,0235
3917,00;0,0234
3916,00;0,0234
3915,00;0,0234
3914,00;0,0234
3913,00;0,0234
3912,00;0,0235
3911,00;0,0235
3910,00;0,0236
3909,00;0,0236
3908,00;0,0236
3907,00;0,0236
3906,00;0,0235
3905,00;0,0235
3904,00;0,0235
3903,00;0,0234
3902,00;0,0233
3901,00;0,0233
3900,00;0,0232
3899,00;0,0232
3898,00;0,0233
3897,00;0,0234
3896,00;0,0234
3895,00;0,0235
3894,00;0,0235
3893,00;0,0235
3892,00;0,0235
3891,00;0,0235
3890,00;0,0235
3889,00;0,0235
3888,00;0,0234
3887,00;0,0234
3886,00;0,0234
3885,00;0,0235
3884,00;0,0234
3883,00;0,0234
3882,00;0,0233
3881,00;0,0233
3880,00;0,0233
3879,00;0,0234
3878,00;0,0234
3877,00;0,0235
3876,00;0,0235
3875,00;0,0235
3874,00;0,0236
3873,00;0,0236
3872,00;0,0236
3871,00;0,0235
3870,00;0,0235
3869,00;0,0235
3868,00;0,0235
3867,00;0,0235
3866,00;0,0234
3865,00;0,0234
3864,00;0,0235
3863,00;0,0235
3862,00;0,0235
3861,00;0,0235
3860,00;0,0236
3859,00;0,0236
3858,00;0,0236
3857,00;0,0236
3856,00;0,0236
3855,00;0,0235
3854,00;0,0234
3853,00;0,0234
3852,00;0,0234
3851,00;0,0234
3850,00;0,0233
3849,00;0,0233
3848,00;0,0234
3847,00;0,0234
3846,00;0,0235
3845,00;0,0235
3844,00;0,0235
3843,00;0,0235
3842,00;0,0235
3841,00;0,0235
3840,00;0,0235
3839,00;0,0235
3838,00;0,0235
3837,00;0,0235
3836,00;0,0235
3835,00;0,0234
3834,00;0,0234
3833,00;0,0234
3832,00;0,0235
3831,00;0,0236
3830,00;0,0236
3829,00;0,0236
3828,00;0,0236
3827,00;0,0236
3826,00;0,0236
3825,00;0,0236
3824,00;0,0236
3823,00;0,0236
3822,00;0,0235
3821,00;0,0235
3820,00;0,0235
3819,00;0,0235
3818,00;0,0234
3817,00;0,0234
3816,00;0,0235
3815,00;0,0236
3814,00;0,0236
3813,00;0,0236
3812,00;0,0235
3811,00;0,0236
3810,00;0,0236
3809,00;0,0237
3808,00;0,0237
3807,00;0,0238
3806,00;0,0238
3805,00;0,0237
3804,00;0,0236
3803,00;0,0236
3802,00;0,0236
3801,00;0,0237
3800,00;0,0237
3799,00;0,0237
3798,00;0,0236
3797,00;0,0236
3796,00;0,0236
3795,00;0,0237
3794,00;0,0237
3793,00;0,0238
3792,00;0,0238
3791,00;0,0239
3790,00;0,0239
3789,00;0,0239
3788,00;0,0239
3787,00;0,0239
3786,00;0,0239
3785,00;0,0238
3784,00;0,0238
3783,00;0,0239
3782,00;0,0238
3781,00;0,0238
3780,00;0,0238
3779,00;0,0238
3778,00;0,0238
3777,00;0,0238
3776,00;0,0238
3775,00;0,0238
3774,00;0,0239
3773,00;0,0239
3772,00;0,0239
3771,00;0,0239
3770,00;0,0239
3769,00;0,0238
3768,00;0,0238
3767,00;0,0237
3766,00;0,0237
3765,00;0,0238
3764,00;0,0238
3763,00;0,0239
3762,00;0,0239
3761,00;0,0238
3760,00;0,0238
3759,00;0,0238
3758,00;0,0238
3757,00;0,0238
3756,00;0,0238
3755,00;0,0238
3754,00;0,0238
3753,00;0,0238
3752,00;0,0238
3751,00;0,0238
3750,00;0,0237
3749,00;0,0236
3748,00;0,0236
3747,00;0,0235
3746,00;0,0234
3745,00;0,0234
3744,00;0,0235
3743,00;0,0236
3742,00;0,0236
3741,00;0,0236
3740,00;0,0236
3739,00;0,0237
3738,00;0,0237
3737,00;0,0237
3736,00;0,0237
3735,00;0,0236
3734,00;0,0236
3733,00;0,0236
3732,00;0,0236
3731,00;0,0237
3730,00;0,0237
3729,00;0,0238
3728,00;0,0238
3727,00;0,0238
3726,00;0,0239
3725,00;0,0239
3724,00;0,0238
3723,00;0,0238
3722,00;0,0238
3721,00;0,0239
3720,00;0,0239
3719,00;0,0240
3718,00;0,0240
3717,00;0,0240
3716,00;0,0240
3715,00;0,0240
3714,00;0,0239
3713,00;0,0239
3712,00;0,0238
3711,00;0,0238
3710,00;0,0237
3709,00;0,0237
3708,00;0,0237
3707,00;0,0237
3706,00;0,0238
3705,00;0,0238
3704,00;0,0238
3703,00;0,0238
3702,00;0,0239
3701,00;0,0239
3700,00;0,0239
3699,00;0,0239
3698,00;0,0239
3697,00;0,0239
3696,00;0,0239
3695,00;0,0239
3694,00;0,0239
3693,00;0,0238
3692,00;0,0238
3691,00;0,0237
3690,00;0,0237
3689,00;0,0237
3688,00;0,0237
3687,00;0,0237
3686,00;0,0237
3685,00;0,0237
3684,00;0,0238
3683,00;0,0239
3682,00;0,0239
3681,00;0,0240
3680,00;0,0239
3679,00;0,0239
3678,00;0,0239
3677,00;0,0238
3676,00;0,0237
3675,00;0,0237
3674,00;0,0237
3673,00;0,0237
3672,00;0,0236
3671,00;0,0236
3670,00;0,0236
3669,00;0,0237
3668,00;0,0237
3667,00;0,0237
3666,00;0,0237
3665,00;0,0238
3664,00;0,0238
3663,00;0,0239
3662,00;0,0239
3661,00;0,0239
3660,00;0,0239
3659,00;0,0239
3658,00;0,0239
3657,00;0,0239
3656,00;0,0239
3655,00;0,0239
3654,00;0,0239
3653,00;0,0238
3652,00;0,0237
3651,00;0,0237
3650,00;0,0237
3649,00;0,0237
3648,00;0,0236
3647,00;0,0236
3646,00;0,0236
3645,00;0,0236
3644,00;0,0237
3643,00;0,0238
3642,00;0,0239
3641,00;0,0240
3640,00;0,0240
3639,00;0,0240
3638,00;0,0241
3637,00;0,0241
3636,00;0,0241
3635,00;0,0241
3634,00;0,0241
3633,00;0,0241
3632,00;0,0240
3631,00;0,0239
3630,00;0,0239
3629,00;0,0238
3628,00;0,0238
3627,00;0,0238
3626,00;0,0238
3625,00;0,0238
3624,00;0,0239
3623,00;0,0239
3622,00;0,0240
3621,00;0,0239
3620,00;0,0239
3619,00;0,0239
3618,00;0,0239
3617,00;0,0239
3616,00;0,0239
3615,00;0,0238
3614,00;0,0238
3613,00;0,0238
3612,00;0,0238
3611,00;0,0239
3610,00;0,0239
3609,00;0,0239
3608,00;0,0239
3607,00;0,0239
3606,00;0,0239
3605,00;0,0239
3604,00;0,0240
3603,00;0,0240
3602,00;0,0241
3601,00;0,0241
3600,00;0,0241
3599,00;0,0241
3598,00;0,0241
3597,00;0,0241
3596,00;0,0241
3595,00;0,0241
3594,00;0,0241
3593,00;0,0241
3592,00;0,0241
3591,00;0,0241
3590,00;0,0241
3589,00;0,0241
3588,00;0,0241
3587,00;0,0240
3586,00;0,0240
3585,00;0,0240
3584,00;0,0240
3583,00;0,0240
3582,00;0,0241
3581,00;0,0241
3580,00;0,0242
3579,00;0,0242
3578,00;0,0242
3577,00;0,0242
3576,00;0,0242
3575,00;0,0242
3574,00;0,0242
3573,00;0,0242
3572,00;0,0242
3571,00;0,0242
3570,00;0,0242
3569,00;0,0242
3568,00;0,0241
3567,00;0,0241
3566,00;0,0240
3565,00;0,0240
3564,00;0,0240
3563,00;0,0240
3562,00;0,0240
3561,00;0,0241
3560,00;0,0241
3559,00;0,0242
3558,00;0,0242
3557,00;0,0242
3556,00;0,0242
3555,00;0,0242
3554,00;0,0243
3553,00;0,0243
3552,00;0,0243
3551,00;0,0243
3550,00;0,0243
3549,00;0,0243
3548,00;0,0243
3547,00;0,0243
3546,00;0,0243
3545,00;0,0242
3544,00;0,0242
3543,00;0,0242
3542,00;0,0243
3541,00;0,0243
3540,00;0,0243
3539,00;0,0243
3538,00;0,0244
3537,00;0,0244
3536,00;0,0244
3535,00;0,0244
3534,00;0,0244
3533,00;0,0244
3532,00;0,0244
3531,00;0,0244
3530,00;0,0244
3529,00;0,0244
3528,00;0,0243
3527,00;0,0243
3526,00;0,0243
3525,00;0,0244
3524,00;0,0244
3523,00;0,0244
3522,00;0,0244
3521,00;0,0245
3520,00;0,0245
3519,00;0,0245
3518,00;0,0244
3517,00;0,0244
3516,00;0,0244
3515,00;0,0244
3514,00;0,0244
3513,00;0,0245
3512,00;0,0245
3511,00;0,0245
3510,00;0,0244
3509,00;0,0244
3508,00;0,0244
3507,00;0,0244
3506,00;0,0245
3505,00;0,0245
3504,00;0,0246
3503,00;0,0246
3502,00;0,0246
3501,00;0,0246
3500,00;0,0245
3499,00;0,0245
3498,00;0,0245
3497,00;0,0245
3496,00;0,0245
3495,00;0,0245
3494,00;0,0245
3493,00;0,0245
3492,00;0,0246
3491,00;0,0246
3490,00;0,0246
3489,00;0,0246
3488,00;0,0246
3487,00;0,0246
3486,00;0,0246
3485,00;0,0246
3484,00;0,0246
3483,00;0,0246
3482,00;0,0246
3481,00;0,0245
3480,00;0,0245
3479,00;0,0245
3478,00;0,0245
3477,00;0,0246
3476,00;0,0246
3475,00;0,0247
3474,00;0,0247
3473,00;0,0247
3472,00;0,0247
3471,00;0,0247
3470,00;0,0247
3469,00;0,0247
3468,00;0,0247
3467,00;0,0247
3466,00;0,0247
3465,00;0,0247
3464,00;0,0247
3463,00;0,0247
3462,00;0,0246
3461,00;0,0246
3460,00;0,0246
3459,00;0,0246
3458,00;0,0246
3457,00;0,0246
3456,00;0,0246
3455,00;0,0247
3454,00;0,0247
3453,00;0,0248
3452,00;0,0248
3451,00;0,0247
3450,00;0,0247
3449,00;0,0247
3448,00;0,0247
3447,00;0,0247
3446,00;0,0248
3445,00;0,0248
3444,00;0,0248
3443,00;0,0248
3442,00;0,0247
3441,00;0,0247
3440,00;0,0247
3439,00;0,0247
3438,00;0,0247
3437,00;0,0247
3436,00;0,0247
3435,00;0,0247
3434,00;0,0248
3433,00;0,0248
3432,00;0,0248
3431,00;0,0248
3430,00;0,0248
3429,00;0,0248
3428,00;0,0248
3427,00;0,0248
3426,00;0,0248
3425,00;0,0248
3424,00;0,0248
3423,00;0,0248
3422,00;0,0248
3421,00;0,0248
3420,00;0,0248
3419,00;0,0249
3418,00;0,0249
3417,00;0,0249
3416,00;0,0249
3415,00;0,0249
3414,00;0,0249
3413,00;0,0248
3412,00;0,0248
3411,00;0,0248
3410,00;0,0248
3409,00;0,0248
3408,00;0,0248
3407,00;0,0248
3406,00;0,0248
3405,00;0,0248
3404,00;0,0248
3403,00;0,0248
3402,00;0,0249
3401,00;0,0249
3400,00;0,0250
3399,00;0,0250
3398,00;0,0250
3397,00;0,0250
3396,00;0,0250
3395,00;0,0249
3394,00;0,0249
3393,00;0,0249
3392,00;0,0249
3391,00;0,0249
3390,00;0,0249
3389,00;0,0250
3388,00;0,0250
3387,00;0,0250
3386,00;0,0250
3385,00;0,0250
3384,00;0,0250
3383,00;0,0250
3382,00;0,0250
3381,00;0,0250
3380,00;0,0250
3379,00;0,0250
3378,00;0,0250
3377,00;0,0250
3376,00;0,0250
3375,00;0,0250
3374,00;0,0249
3373,00;0,0249
3372,00;0,0249
3371,00;0,0249
3370,00;0,0250
3369,00;0,0250
3368,00;0,0250
3367,00;0,0251
3366,00;0,0251
3365,00;0,0251
3364,00;0,0251
3363,00;0,0250
3362,00;0,0250
3361,00;0,0250
3360,00;0,0250
3359,00;0,0250
3358,00;0,0250
3357,00;0,0250
3356,00;0,0250
3355,00;0,0250
3354,00;0,0251
3353,00;0,0251
3352,00;0,0251
3351,00;0,0252
3350,00;0,0252
3349,00;0,0252
3348,00;0,0252
3347,00;0,0252
3346,00;0,0252
3345,00;0,0252
3344,00;0,0252
3343,00;0,0252
3342,00;0,0253
3341,00;0,0253
3340,00;0,0253
3339,00;0,0252
3338,00;0,0252
3337,00;0,0252
3336,00;0,0252
3335,00;0,0252
3334,00;0,0252
3333,00;0,0252
3332,00;0,0252
3331,00;0,0252
3330,00;0,0253
3329,00;0,0253
3328,00;0,0253
3327,00;0,0253
3326,00;0,0253
3325,00;0,0253
3324,00;0,0252
3323,00;0,0252
3322,00;0,0252
3321,00;0,0252
3320,00;0,0252
3319,00;0,0252
3318,00;0,0252
3317,00;0,0253
3316,00;0,0253
3315,00;0,0253
3314,00;0,0254
3313,00;0,0254
3312,00;0,0254
3311,00;0,0254
3310,00;0,0253
3309,00;0,0253
3308,00;0,0253
3307,00;0,0253
3306,00;0,0253
3305,00;0,0253
3304,00;0,0254
3303,00;0,0254
3302,00;0,0254
3301,00;0,0254
3300,00;0,0253
3299,00;0,0253
3298,00;0,0254
3297,00;0,0254
3296,00;0,0254
3295,00;0,0254
3294,00;0,0254
3293,00;0,0254
3292,00;0,0254
3291,00;0,0254
3290,00;0,0254
3289,00;0,0254
3288,00;0,0255
3287,00;0,0255
3286,00;0,0255
3285,00;0,0255
3284,00;0,0255
3283,00;0,0255
3282,00;0,0255
3281,00;0,0255
3280,00;0,0255
3279,00;0,0255
3278,00;0,0255
3277,00;0,0255
3276,00;0,0254
3275,00;0,0254
3274,00;0,0254
3273,00;0,0254
3272,00;0,0254
3271,00;0,0254
3270,00;0,0255
3269,00;0,0255
3268,00;0,0255
3267,00;0,0256
3266,00;0,0256
3265,00;0,0256
3264,00;0,0256
3263,00;0,0256
3262,00;0,0256
3261,00;0,0256
3260,00;0,0256
3259,00;0,0256
3258,00;0,0255
3257,00;0,0255
3256,00;0,0255
3255,00;0,0255
3254,00;0,0255
3253,00;0,0255
3252,00;0,0256
3251,00;0,0256
3250,00;0,0256
3249,00;0,0255
3248,00;0,0255
3247,00;0,0255
3246,00;0,0256
3245,00;0,0256
3244,00;0,0256
3243,00;0,0256
3242,00;0,0256
3241,00;0,0256
3240,00;0,0255
3239,00;0,0255
3238,00;0,0256
3237,00;0,0256
3236,00;0,0256
3235,00;0,0257
3234,00;0,0257
3233,00;0,0257
3232,00;0,0256
3231,00;0,0256
3230,00;0,0256
3229,00;0,0256
3228,00;0,0256
3227,00;0,0257
3226,00;0,0257
3225,00;0,0257
3224,00;0,0257
3223,00;0,0257
3222,00;0,0257
3221,00;0,0257
3220,00;0,0257
3219,00;0,0257
3218,00;0,0257
3217,00;0,0257
3216,00;0,0257
3215,00;0,0257
3214,00;0,0257
3213,00;0,0257
3212,00;0,0257
3211,00;0,0257
3210,00;0,0257
3209,00;0,0257
3208,00;0,0257
3207,00;0,0257
3206,00;0,0257
3205,00;0,0257
3204,00;0,0258
3203,00;0,0258
3202,00;0,0258
3201,00;0,0258
3200,00;0,0257
3199,00;0,0257
3198,00;0,0257
3197,00;0,0257
3196,00;0,0257
3195,00;0,0257
3194,00;0,0258
3193,00;0,0258
3192,00;0,0258
3191,00;0,0258
3190,00;0,0258
3189,00;0,0258
3188,00;0,0258
3187,00;0,0258
3186,00;0,0258
3185,00;0,0258
3184,00;0,0258
3183,00;0,0258
3182,00;0,0257
3181,00;0,0258
3180,00;0,0258
3179,00;0,0258
3178,00;0,0258
3177,00;0,0258
3176,00;0,0258
3175,00;0,0258
3174,00;0,0258
3173,00;0,0259
3172,00;0,0259
3171,00;0,0260
3170,00;0,0260
3169,00;0,0260
3168,00;0,0260
3167,00;0,0260
3166,00;0,0260
3165,00;0,0260
3164,00;0,0260
3163,00;0,0260
3162,00;0,0260
3161,00;0,0260
3160,00;0,0259
3159,00;0,0259
3158,00;0,0259
3157,00;0,0259
3156,00;0,0258
3155,00;0,0258
3154,00;0,0258
3153,00;0,0259
3152,00;0,0259
3151,00;0,0259
3150,00;0,0260
3149,00;0,0259
3148,00;0,0259
3147,00;0,0259
3146,00;0,0259
3145,00;0,0259
3144,00;0,0259
3143,00;0,0260
3142,00;0,0260
3141,00;0,0260
3140,00;0,0259
3139,00;0,0259
3138,00;0,0259
3137,00;0,0259
3136,00;0,0260
3135,00;0,0260
3134,00;0,0260
3133,00;0,0260
3132,00;0,0260
3131,00;0,0260
3130,00;0,0260
3129,00;0,0261
3128,00;0,0261
3127,00;0,0261
3126,00;0,0261
3125,00;0,0261
3124,00;0,0261
3123,00;0,0260
3122,00;0,0260
3121,00;0,0260
3120,00;0,0260
3119,00;0,0260
3118,00;0,0259
3117,00;0,0259
3116,00;0,0259
3115,00;0,0260
3114,00;0,0260
3113,00;0,0261
3112,00;0,0261
3111,00;0,0261
3110,00;0,0261
3109,00;0,0261
3108,00;0,0262
3107,00;0,0262
3106,00;0,0262
3105,00;0,0262
3104,00;0,0262
3103,00;0,0262
3102,00;0,0262
3101,00;0,0262
3100,00;0,0262
3099,00;0,0263
3098,00;0,0263
3097,00;0,0263
3096,00;0,0263
3095,00;0,0263
3094,00;0,0263
3093,00;0,0263
3092,00;0,0263
3091,00;0,0263
3090,00;0,0263
3089,00;0,0263
3088,00;0,0263
3087,00;0,0263
3086,00;0,0263
3085,00;0,0263
3084,00;0,0262
3083,00;0,0263
3082,00;0,0263
3081,00;0,0263
3080,00;0,0262
3079,00;0,0262
3078,00;0,0262
3077,00;0,0263
3076,00;0,0263
3075,00;0,0264
3074,00;0,0264
3073,00;0,0264
3072,00;0,0264
3071,00;0,0263
3070,00;0,0263
3069,00;0,0263
3068,00;0,0263
3067,00;0,0263
3066,00;0,0263
3065,00;0,0263
3064,00;0,0263
3063,00;0,0263
3062,00;0,0263
3061,00;0,0264
3060,00;0,0264
3059,00;0,0264
3058,00;0,0264
3057,00;0,0264
3056,00;0,0263
3055,00;0,0263
3054,00;0,0263
3053,00;0,0263
3052,00;0,0263
3051,00;0,0264
3050,00;0,0264
3049,00;0,0264
3048,00;0,0264
3047,00;0,0264
3046,00;0,0264
3045,00;0,0264
3044,00;0,0264
3043,00;0,0264
3042,00;0,0265
3041,00;0,0265
3040,00;0,0266
3039,00;0,0266
3038,00;0,0266
3037,00;0,0266
3036,00;0,0266
3035,00;0,0266
3034,00;0,0266
3033,00;0,0267
3032,00;0,0267
3031,00;0,0267
3030,00;0,0267
3029,00;0,0267
3028,00;0,0267
3027,00;0,0266
3026,00;0,0266
3025,00;0,0267
3024,00;0,0267
3023,00;0,0267
3022,00;0,0267
3021,00;0,0267
3020,00;0,0267
3019,00;0,0267
3018,00;0,0267
3017,00;0,0266
3016,00;0,0266
3015,00;0,0266
3014,00;0,0266
3013,00;0,0266
3012,00;0,0266
3011,00;0,0266
3010,00;0,0266
3009,00;0,0267
3008,00;0,0267
3007,00;0,0267
3006,00;0,0267
3005,00;0,0267
3004,00;0,0267
3003,00;0,0267
3002,00;0,0267
3001,00;0,0267
3000,00;0,0267
2999,00;0,0267
2998,00;0,0267
2997,00;0,0267
2996,00;0,0267
2995,00;0,0267
2994,00;0,0267
2993,00;0,0267
2992,00;0,0267
2991,00;0,0267
2990,00;0,0267
2989,00;0,0267
2988,00;0,0267
2987,00;0,0267
2986,00;0,0267
2985,00;0,0267
2984,00;0,0266
2983,00;0,0266
2982,00;0,0265
2981,00;0,0265
2980,00;0,0265
2979,00;0,0265
2978,00;0,0265
2977,00;0,0265
2976,00;0,0265
2975,00;0,0265
2974,00;0,0266
2973,00;0,0266
2972,00;0,0267
2971,00;0,0267
2970,00;0,0267
2969,00;0,0266
2968,00;0,0265
2967,00;0,0264
2966,00;0,0263
2965,00;0,0263
2964,00;0,0262
2963,00;0,0262
2962,00;0,0262
2961,00;0,0262
2960,00;0,0261
2959,00;0,0261
2958,00;0,0262
2957,00;0,0262
2956,00;0,0262
2955,00;0,0262
2954,00;0,0262
2953,00;0,0262
2952,00;0,0262
2951,00;0,0263
2950,00;0,0263
2949,00;0,0263
2948,00;0,0263
2947,00;0,0263
2946,00;0,0263
2945,00;0,0262
2944,00;0,0262
2943,00;0,0262
2942,00;0,0261
2941,00;0,0261
2940,00;0,0260
2939,00;0,0259
2938,00;0,0258
2937,00;0,0257
2936,00;0,0256
2935,00;0,0256
2934,00;0,0255
2933,00;0,0254
2932,00;0,0253
2931,00;0,0253
2930,00;0,0252
2929,00;0,0252
2928,00;0,0252
2927,00;0,0251
2926,00;0,0251
2925,00;0,0251
2924,00;0,0251
2923,00;0,0252
2922,00;0,0252
2921,00;0,0253
2920,00;0,0254
2919,00;0,0255
2918,00;0,0256
2917,00;0,0256
2916,00;0,0257
2915,00;0,0258
2914,00;0,0259
2913,00;0,0260
2912,00;0,0260
2911,00;0,0261
2910,00;0,0262
2909,00;0,0262
2908,00;0,0263
2907,00;0,0263
2906,00;0,0264
2905,00;0,0264
2904,00;0,0265
2903,00;0,0265
2902,00;0,0265
2901,00;0,0265
2900,00;0,0265
2899,00;0,0265
2898,00;0,0265
2897,00;0,0265
2896,00;0,0265
2895,00;0,0266
2894,00;0,0266
2893,00;0,0266
2892,00;0,0267
2891,00;0,0268
2890,00;0,0268
2889,00;0,0269
2888,00;0,0269
2887,00;0,0269
2886,00;0,0269
2885,00;0,0269
2884,00;0,0269
2883,00;0,0269
2882,00;0,0268
2881,00;0,0268
2880,00;0,0268
2879,00;0,0268
2878,00;0,0268
2877,00;0,0268
2876,00;0,0268
2875,00;0,0268
2874,00;0,0268
2873,00;0,0268
2872,00;0,0268
2871,00;0,0268
2870,00;0,0268
2869,00;0,0268
2868,00;0,0268
2867,00;0,0268
2866,00;0,0268
2865,00;0,0268
2864,00;0,0267
2863,00;0,0267
2862,00;0,0266
2861,00;0,0265
2860,00;0,0264
2859,00;0,0263
2858,00;0,0263
2857,00;0,0262
2856,00;0,0262
2855,00;0,0263
2854,00;0,0263
2853,00;0,0263
2852,00;0,0264
2851,00;0,0264
2850,00;0,0265
2849,00;0,0266
2848,00;0,0268
2847,00;0,0269
2846,00;0,0270
2845,00;0,0271
2844,00;0,0272
2843,00;0,0272
2842,00;0,0272
2841,00;0,0272
2840,00;0,0273
2839,00;0,0273
2838,00;0,0273
2837,00;0,0273
2836,00;0,0274
2835,00;0,0274
2834,00;0,0274
2833,00;0,0274
2832,00;0,0274
2831,00;0,0274
2830,00;0,0274
2829,00;0,0274
2828,00;0,0274
2827,00;0,0274
2826,00;0,0274
2825,00;0,0274
2824,00;0,0274
2823,00;0,0274
2822,00;0,0274
2821,00;0,0274
2820,00;0,0274
2819,00;0,0274
2818,00;0,0275
2817,00;0,0275
2816,00;0,0275
2815,00;0,0275
2814,00;0,0275
2813,00;0,0275
2812,00;0,0275
2811,00;0,0275
2810,00;0,0275
2809,00;0,0275
2808,00;0,0275
2807,00;0,0275
2806,00;0,0275
2805,00;0,0276
2804,00;0,0276
2803,00;0,0276
2802,00;0,0276
2801,00;0,0276
2800,00;0,0276
2799,00;0,0276
2798,00;0,0276
2797,00;0,0276
2796,00;0,0276
2795,00;0,0276
2794,00;0,0276
2793,00;0,0276
2792,00;0,0276
2791,00;0,0276
2790,00;0,0277
2789,00;0,0277
2788,00;0,0277
2787,00;0,0277
2786,00;0,0277
2785,00;0,0277
2784,00;0,0277
2783,00;0,0277
2782,00;0,0277
2781,00;0,0277
2780,00;0,0277
2779,00;0,0277
2778,00;0,0277
2777,00;0,0277
2776,00;0,0277
2775,00;0,0277
2774,00;0,0277
2773,00;0,0277
2772,00;0,0277
2771,00;0,0277
2770,00;0,0277
2769,00;0,0277
2768,00;0,0277
2767,00;0,0277
2766,00;0,0277
2765,00;0,0278
2764,00;0,0278
2763,00;0,0278
2762,00;0,0278
2761,00;0,0278
2760,00;0,0278
2759,00;0,0278
2758,00;0,0278
2757,00;0,0278
2756,00;0,0278
2755,00;0,0278
2754,00;0,0278
2753,00;0,0278
2752,00;0,0278
2751,00;0,0278
2750,00;0,0278
2749,00;0,0278
2748,00;0,0278
2747,00;0,0278
2746,00;0,0278
2745,00;0,0278
2744,00;0,0279
2743,00;0,0279
2742,00;0,0279
2741,00;0,0279
2740,00;0,0279
2739,00;0,0279
2738,00;0,0279
2737,00;0,0279
2736,00;0,0279
2735,00;0,0279
2734,00;0,0279
2733,00;0,0279
2732,00;0,0279
2731,00;0,0279
2730,00;0,0279
2729,00;0,0279
2728,00;0,0280
2727,00;0,0280
2726,00;0,0280
2725,00;0,0279
2724,00;0,0280
2723,00;0,0280
2722,00;0,0280
2721,00;0,0280
2720,00;0,0280
2719,00;0,0280
2718,00;0,0279
2717,00;0,0279
2716,00;0,0279
2715,00;0,0279
2714,00;0,0280
2713,00;0,0280
2712,00;0,0280
2711,00;0,0280
2710,00;0,0280
2709,00;0,0280
2708,00;0,0280
2707,00;0,0280
2706,00;0,0280
2705,00;0,0281
2704,00;0,0281
2703,00;0,0281
2702,00;0,0281
2701,00;0,0281
2700,00;0,0281
2699,00;0,0281
2698,00;0,0281
2697,00;0,0281
2696,00;0,0281
2695,00;0,0281
2694,00;0,0281
2693,00;0,0281
2692,00;0,0281
2691,00;0,0280
2690,00;0,0280
2689,00;0,0280
2688,00;0,0281
2687,00;0,0281
2686,00;0,0281
2685,00;0,0282
2684,00;0,0282
2683,00;0,0282
2682,00;0,0282
2681,00;0,0282
2680,00;0,0282
2679,00;0,0282
2678,00;0,0282
2677,00;0,0282
2676,00;0,0282
2675,00;0,0282
