Создан как новый массив данных;Образец 014 полученный BalashovM Дата пятница, марта 03 2023
cm-1;A
4000,00;0,0573
3999,00;0,0573
3998,00;0,0573
3997,00;0,0573
3996,00;0,0573
3995,00;0,0573
3994,00;0,0573
3993,00;0,0573
3992,00;0,0573
3991,00;0,0573
3990,00;0,0573
3989,00;0,0573
3988,00;0,0573
3987,00;0,0573
3986,00;0,0573
3985,00;0,0574
3984,00;0,0574
3983,00;0,0573
3982,00;0,0573
3981,00;0,0573
3980,00;0,0573
3979,00;0,0573
3978,00;0,0573
3977,00;0,0574
3976,00;0,0574
3975,00;0,0574
3974,00;0,0574
3973,00;0,0574
3972,00;0,0574
3971,00;0,0574
3970,00;0,0574
3969,00;0,0574
3968,00;0,0574
3967,00;0,0574
3966,00;0,0574
3965,00;0,0574
3964,00;0,0574
3963,00;0,0574
3962,00;0,0574
3961,00;0,0574
3960,00;0,0574
3959,00;0,0574
3958,00;0,0574
3957,00;0,0574
3956,00;0,0574
3955,00;0,0574
3954,00;0,0574
3953,00;0,0574
3952,00;0,0574
3951,00;0,0574
3950,00;0,0574
3949,00;0,0574
3948,00;0,0574
3947,00;0,0574
3946,00;0,0574
3945,00;0,0574
3944,00;0,0574
3943,00;0,0574
3942,00;0,0574
3941,00;0,0574
3940,00;0,0574
3939,00;0,0574
3938,00;0,0574
3937,00;0,0574
3936,00;0,0574
3935,00;0,0574
3934,00;0,0574
3933,00;0,0575
3932,00;0,0575
3931,00;0,0575
3930,00;0,0575
3929,00;0,0575
3928,00;0,0575
3927,00;0,0575
3926,00;0,0575
3925,00;0,0575
3924,00;0,0575
3923,00;0,0575
3922,00;0,0575
3921,00;0,0575
3920,00;0,0575
3919,00;0,0575
3918,00;0,0574
3917,00;0,0574
3916,00;0,0574
3915,00;0,0574
3914,00;0,0575
3913,00;0,0575
3912,00;0,0575
3911,00;0,0575
3910,00;0,0575
3909,00;0,0575
3908,00;0,0575
3907,00;0,0575
3906,00;0,0575
3905,00;0,0575
3904,00;0,0575
3903,00;0,0575
3902,00;0,0575
3901,00;0,0575
3900,00;0,0575
3899,00;0,0575
3898,00;0,0575
3897,00;0,0575
3896,00;0,0575
3895,00;0,0575
3894,00;0,0575
3893,00;0,0575
3892,00;0,0575
3891,00;0,0575
3890,00;0,0575
3889,00;0,0575
3888,00;0,0575
3887,00;0,0575
3886,00;0,0575
3885,00;0,0575
3884,00;0,0575
3883,00;0,0575
3882,00;0,0575
3881,00;0,0575
3880,00;0,0575
3879,00;0,0575
3878,00;0,0575
3877,00;0,0575
3876,00;0,0575
3875,00;0,0575
3874,00;0,0575
3873,00;0,0575
3872,00;0,0575
3871,00;0,0575
3870,00;0,0575
3869,00;0,0575
3868,00;0,0575
3867,00;0,0575
3866,00;0,0575
3865,00;0,0575
3864,00;0,0575
3863,00;0,0575
3862,00;0,0575
3861,00;0,0575
3860,00;0,0575
3859,00;0,0575
3858,00;0,0575
3857,00;0,0575
3856,00;0,0575
3855,00;0,0575
3854,00;0,0575
3853,00;0,0575
3852,00;0,0575
3851,00;0,0575
3850,00;0,0575
3849,00;0,0575
3848,00;0,0575
3847,00;0,0575
3846,00;0,0575
3845,00;0,0575
3844,00;0,0575
3843,00;0,0575
3842,00;0,0575
3841,00;0,0575
3840,00;0,0575
3839,00;0,0575
3838,00;0,0575
3837,00;0,0575
3836,00;0,0575
3835,00;0,0575
3834,00;0,0575
3833,00;0,0575
3832,00;0,0575
3831,00;0,0575
3830,00;0,0575
3829,00;0,0575
3828,00;0,0575
3827,00;0,0575
3826,00;0,0575
3825,00;0,0575
3824,00;0,0575
3823,00;0,0575
3822,00;0,0575
3821,00;0,0575
3820,00;0,0575
3819,00;0,0575
3818,00;0,0575
3817,00;0,0575
3816,00;0,0575
3815,00;0,0575
3814,00;0,0575
3813,00;0,0575
3812,00;0,0575
3811,00;0,0575
3810,00;0,0575
3809,00;0,0575
3808,00;0,0575
3807,00;0,0575
3806,00;0,0575
3805,00;0,0575
3804,00;0,0575
3803,00;0,0575
3802,00;0,0575
3801,00;0,0575
3800,00;0,0575
3799,00;0,0575
3798,00;0,0575
3797,00;0,0575
3796,00;0,0575
3795,00;0,0575
3794,00;0,0575
3793,00;0,0575
3792,00;0,0575
3791,00;0,0575
3790,00;0,0575
3789,00;0,0575
3788,00;0,0575
3787,00;0,0575
3786,00;0,0575
3785,00;0,0575
3784,00;0,0575
3783,00;0,0575
3782,00;0,0575
3781,00;0,0575
3780,00;0,0575
3779,00;0,0575
3778,00;0,0575
3777,00;0,0575
3776,00;0,0575
3775,00;0,0575
3774,00;0,0575
3773,00;0,0575
3772,00;0,0575
3771,00;0,0575
3770,00;0,0575
3769,00;0,0575
3768,00;0,0575
3767,00;0,0575
3766,00;0,0574
3765,00;0,0574
3764,00;0,0574
3763,00;0,0574
3762,00;0,0574
3761,00;0,0574
3760,00;0,0574
3759,00;0,0574
3758,00;0,0574
3757,00;0,0574
3756,00;0,0574
3755,00;0,0574
3754,00;0,0574
3753,00;0,0574
3752,00;0,0574
3751,00;0,0574
3750,00;0,0574
3749,00;0,0574
3748,00;0,0574
3747,00;0,0574
3746,00;0,0574
3745,00;0,0574
3744,00;0,0574
3743,00;0,0574
3742,00;0,0574
3741,00;0,0574
3740,00;0,0574
3739,00;0,0574
3738,00;0,0574
3737,00;0,0574
3736,00;0,0574
3735,00;0,0574
3734,00;0,0574
3733,00;0,0574
3732,00;0,0574
3731,00;0,0574
3730,00;0,0574
3729,00;0,0574
3728,00;0,0574
3727,00;0,0574
3726,00;0,0574
3725,00;0,0574
3724,00;0,0574
3723,00;0,0573
3722,00;0,0573
3721,00;0,0573
3720,00;0,0573
3719,00;0,0573
3718,00;0,0573
3717,00;0,0573
3716,00;0,0573
3715,00;0,0573
3714,00;0,0573
3713,00;0,0573
3712,00;0,0573
3711,00;0,0573
3710,00;0,0573
3709,00;0,0573
3708,00;0,0573
3707,00;0,0573
3706,00;0,0573
3705,00;0,0573
3704,00;0,0573
3703,00;0,0573
3702,00;0,0573
3701,00;0,0573
3700,00;0,0573
3699,00;0,0573
3698,00;0,0573
3697,00;0,0573
3696,00;0,0573
3695,00;0,0573
3694,00;0,0573
3693,00;0,0573
3692,00;0,0573
3691,00;0,0573
3690,00;0,0573
3689,00;0,0573
3688,00;0,0573
3687,00;0,0573
3686,00;0,0573
3685,00;0,0573
3684,00;0,0573
3683,00;0,0573
3682,00;0,0573
3681,00;0,0573
3680,00;0,0573
3679,00;0,0573
3678,00;0,0573
3677,00;0,0573
3676,00;0,0573
3675,00;0,0573
3674,00;0,0573
3673,00;0,0573
3672,00;0,0573
3671,00;0,0573
3670,00;0,0573
3669,00;0,0573
3668,00;0,0573
3667,00;0,0573
3666,00;0,0573
3665,00;0,0573
3664,00;0,0573
3663,00;0,0573
3662,00;0,0573
3661,00;0,0573
3660,00;0,0573
3659,00;0,0573
3658,00;0,0573
3657,00;0,0573
3656,00;0,0573
3655,00;0,0573
3654,00;0,0573
3653,00;0,0573
3652,00;0,0573
3651,00;0,0573
3650,00;0,0573
3649,00;0,0573
3648,00;0,0573
3647,00;0,0573
3646,00;0,0573
3645,00;0,0573
3644,00;0,0573
3643,00;0,0573
3642,00;0,0573
3641,00;0,0573
3640,00;0,0573
3639,00;0,0573
3638,00;0,0573
3637,00;0,0573
3636,00;0,0573
3635,00;0,0573
3634,00;0,0573
3633,00;0,0573
3632,00;0,0573
3631,00;0,0573
3630,00;0,0573
3629,00;0,0573
3628,00;0,0573
3627,00;0,0573
3626,00;0,0573
3625,00;0,0573
3624,00;0,0573
3623,00;0,0573
3622,00;0,0573
3621,00;0,0573
3620,00;0,0573
3619,00;0,0573
3618,00;0,0573
3617,00;0,0573
3616,00;0,0573
3615,00;0,0573
3614,00;0,0573
3613,00;0,0573
3612,00;0,0573
3611,00;0,0573
3610,00;0,0573
3609,00;0,0573
3608,00;0,0573
3607,00;0,0573
3606,00;0,0573
3605,00;0,0573
3604,00;0,0573
3603,00;0,0573
3602,00;0,0573
3601,00;0,0573
3600,00;0,0573
3599,00;0,0573
3598,00;0,0573
3597,00;0,0573
3596,00;0,0573
3595,00;0,0573
3594,00;0,0573
3593,00;0,0573
3592,00;0,0573
3591,00;0,0573
3590,00;0,0573
3589,00;0,0573
3588,00;0,0573
3587,00;0,0573
3586,00;0,0573
3585,00;0,0573
3584,00;0,0573
3583,00;0,0573
3582,00;0,0573
3581,00;0,0573
3580,00;0,0573
3579,00;0,0573
3578,00;0,0573
3577,00;0,0574
3576,00;0,0574
3575,00;0,0574
3574,00;0,0574
3573,00;0,0574
3572,00;0,0574
3571,00;0,0574
3570,00;0,0574
3569,00;0,0574
3568,00;0,0575
3567,00;0,0575
3566,00;0,0575
3565,00;0,0575
3564,00;0,0575
3563,00;0,0575
3562,00;0,0575
3561,00;0,0575
3560,00;0,0575
3559,00;0,0575
3558,00;0,0575
3557,00;0,0575
3556,00;0,0575
3555,00;0,0575
3554,00;0,0575
3553,00;0,0575
3552,00;0,0575
3551,00;0,0575
3550,00;0,0576
3549,00;0,0576
3548,00;0,0576
3547,00;0,0576
3546,00;0,0576
3545,00;0,0576
3544,00;0,0576
3543,00;0,0576
3542,00;0,0576
3541,00;0,0576
3540,00;0,0576
3539,00;0,0577
3538,00;0,0577
3537,00;0,0577
3536,00;0,0577
3535,00;0,0577
3534,00;0,0577
3533,00;0,0577
3532,00;0,0577
3531,00;0,0577
3530,00;0,0577
3529,00;0,0577
3528,00;0,0577
3527,00;0,0578
3526,00;0,0578
3525,00;0,0578
3524,00;0,0578
3523,00;0,0578
3522,00;0,0578
3521,00;0,0578
3520,00;0,0578
3519,00;0,0578
3518,00;0,0578
3517,00;0,0578
3516,00;0,0578
3515,00;0,0578
3514,00;0,0578
3513,00;0,0578
3512,00;0,0578
3511,00;0,0578
3510,00;0,0578
3509,00;0,0578
3508,00;0,0578
3507,00;0,0578
3506,00;0,0578
3505,00;0,0578
3504,00;0,0578
3503,00;0,0579
3502,00;0,0579
3501,00;0,0579
3500,00;0,0579
3499,00;0,0579
3498,00;0,0579
3497,00;0,0579
3496,00;0,0579
3495,00;0,0579
3494,00;0,0579
3493,00;0,0579
3492,00;0,0579
3491,00;0,0579
3490,00;0,0579
3489,00;0,0579
3488,00;0,0579
3487,00;0,0579
3486,00;0,0579
3485,00;0,0580
3484,00;0,0580
3483,00;0,0580
3482,00;0,0580
3481,00;0,0580
3480,00;0,0580
3479,00;0,0580
3478,00;0,0580
3477,00;0,0580
3476,00;0,0580
3475,00;0,0580
3474,00;0,0580
3473,00;0,0580
3472,00;0,0580
3471,00;0,0580
3470,00;0,0580
3469,00;0,0580
3468,00;0,0580
3467,00;0,0581
3466,00;0,0581
3465,00;0,0581
3464,00;0,0581
3463,00;0,0581
3462,00;0,0581
3461,00;0,0581
3460,00;0,0581
3459,00;0,0581
3458,00;0,0581
3457,00;0,0581
3456,00;0,0581
3455,00;0,0581
3454,00;0,0581
3453,00;0,0581
3452,00;0,0582
3451,00;0,0582
3450,00;0,0582
3449,00;0,0582
3448,00;0,0582
3447,00;0,0582
3446,00;0,0582
3445,00;0,0583
3444,00;0,0583
3443,00;0,0583
3442,00;0,0583
3441,00;0,0582
3440,00;0,0582
3439,00;0,0582
3438,00;0,0582
3437,00;0,0582
3436,00;0,0582
3435,00;0,0583
3434,00;0,0583
3433,00;0,0583
3432,00;0,0583
3431,00;0,0583
3430,00;0,0583
3429,00;0,0583
3428,00;0,0583
3427,00;0,0583
3426,00;0,0583
3425,00;0,0583
3424,00;0,0583
3423,00;0,0583
3422,00;0,0583
3421,00;0,0583
3420,00;0,0583
3419,00;0,0583
3418,00;0,0584
3417,00;0,0584
3416,00;0,0583
3415,00;0,0583
3414,00;0,0583
3413,00;0,0583
3412,00;0,0584
3411,00;0,0584
3410,00;0,0584
3409,00;0,0584
3408,00;0,0584
3407,00;0,0584
3406,00;0,0584
3405,00;0,0584
3404,00;0,0584
3403,00;0,0584
3402,00;0,0584
3401,00;0,0584
3400,00;0,0584
3399,00;0,0584
3398,00;0,0584
3397,00;0,0584
3396,00;0,0584
3395,00;0,0584
3394,00;0,0584
3393,00;0,0584
3392,00;0,0584
3391,00;0,0585
3390,00;0,0585
3389,00;0,0585
3388,00;0,0585
3387,00;0,0585
3386,00;0,0585
3385,00;0,0585
3384,00;0,0585
3383,00;0,0585
3382,00;0,0585
3381,00;0,0585
3380,00;0,0585
3379,00;0,0585
3378,00;0,0585
3377,00;0,0585
3376,00;0,0586
3375,00;0,0586
3374,00;0,0586
3373,00;0,0586
3372,00;0,0586
3371,00;0,0586
3370,00;0,0586
3369,00;0,0586
3368,00;0,0586
3367,00;0,0586
3366,00;0,0586
3365,00;0,0586
3364,00;0,0586
3363,00;0,0586
3362,00;0,0586
3361,00;0,0586
3360,00;0,0586
3359,00;0,0586
3358,00;0,0586
3357,00;0,0586
3356,00;0,0586
3355,00;0,0587
3354,00;0,0587
3353,00;0,0587
3352,00;0,0587
3351,00;0,0587
3350,00;0,0587
3349,00;0,0587
3348,00;0,0587
3347,00;0,0587
3346,00;0,0587
3345,00;0,0587
3344,00;0,0587
3343,00;0,0587
3342,00;0,0587
3341,00;0,0587
3340,00;0,0587
3339,00;0,0587
3338,00;0,0587
3337,00;0,0587
3336,00;0,0587
3335,00;0,0587
3334,00;0,0587
3333,00;0,0587
3332,00;0,0587
3331,00;0,0587
3330,00;0,0587
3329,00;0,0587
3328,00;0,0587
3327,00;0,0587
3326,00;0,0587
3325,00;0,0587
3324,00;0,0587
3323,00;0,0587
3322,00;0,0587
3321,00;0,0587
3320,00;0,0587
3319,00;0,0587
3318,00;0,0587
3317,00;0,0587
3316,00;0,0587
3315,00;0,0587
3314,00;0,0587
3313,00;0,0587
3312,00;0,0587
3311,00;0,0587
3310,00;0,0587
3309,00;0,0587
3308,00;0,0587
3307,00;0,0587
3306,00;0,0587
3305,00;0,0587
3304,00;0,0587
3303,00;0,0587
3302,00;0,0588
3301,00;0,0588
3300,00;0,0588
3299,00;0,0588
3298,00;0,0587
3297,00;0,0587
3296,00;0,0587
3295,00;0,0587
3294,00;0,0587
3293,00;0,0587
3292,00;0,0587
3291,00;0,0588
3290,00;0,0588
3289,00;0,0588
3288,00;0,0588
3287,00;0,0588
3286,00;0,0588
3285,00;0,0588
3284,00;0,0588
3283,00;0,0588
3282,00;0,0588
3281,00;0,0588
3280,00;0,0588
3279,00;0,0588
3278,00;0,0588
3277,00;0,0588
3276,00;0,0588
3275,00;0,0588
3274,00;0,0588
3273,00;0,0588
3272,00;0,0588
3271,00;0,0588
3270,00;0,0588
3269,00;0,0588
3268,00;0,0588
3267,00;0,0588
3266,00;0,0588
3265,00;0,0588
3264,00;0,0588
3263,00;0,0588
3262,00;0,0588
3261,00;0,0588
3260,00;0,0588
3259,00;0,0588
3258,00;0,0588
3257,00;0,0588
3256,00;0,0588
3255,00;0,0588
3254,00;0,0588
3253,00;0,0588
3252,00;0,0588
3251,00;0,0588
3250,00;0,0588
3249,00;0,0588
3248,00;0,0588
3247,00;0,0588
3246,00;0,0588
3245,00;0,0588
3244,00;0,0588
3243,00;0,0588
3242,00;0,0588
3241,00;0,0588
3240,00;0,0588
3239,00;0,0588
3238,00;0,0588
3237,00;0,0588
3236,00;0,0588
3235,00;0,0588
3234,00;0,0588
3233,00;0,0588
3232,00;0,0588
3231,00;0,0589
3230,00;0,0589
3229,00;0,0589
3228,00;0,0589
3227,00;0,0589
3226,00;0,0589
3225,00;0,0589
3224,00;0,0589
3223,00;0,0589
3222,00;0,0589
3221,00;0,0589
3220,00;0,0589
3219,00;0,0589
3218,00;0,0589
3217,00;0,0589
3216,00;0,0589
3215,00;0,0589
3214,00;0,0589
3213,00;0,0589
3212,00;0,0589
3211,00;0,0589
3210,00;0,0589
3209,00;0,0589
3208,00;0,0589
3207,00;0,0589
3206,00;0,0589
3205,00;0,0589
3204,00;0,0589
3203,00;0,0589
3202,00;0,0589
3201,00;0,0589
3200,00;0,0589
3199,00;0,0589
3198,00;0,0589
3197,00;0,0589
3196,00;0,0589
3195,00;0,0589
3194,00;0,0589
3193,00;0,0589
3192,00;0,0589
3191,00;0,0589
3190,00;0,0589
3189,00;0,0589
3188,00;0,0589
3187,00;0,0589
3186,00;0,0589
3185,00;0,0589
3184,00;0,0589
3183,00;0,0589
3182,00;0,0589
3181,00;0,0589
3180,00;0,0589
3179,00;0,0589
3178,00;0,0589
3177,00;0,0589
3176,00;0,0589
3175,00;0,0589
3174,00;0,0590
3173,00;0,0590
3172,00;0,0590
3171,00;0,0590
3170,00;0,0590
3169,00;0,0590
3168,00;0,0590
3167,00;0,0590
3166,00;0,0590
3165,00;0,0590
3164,00;0,0590
3163,00;0,0590
3162,00;0,0590
3161,00;0,0590
3160,00;0,0590
3159,00;0,0590
3158,00;0,0590
3157,00;0,0589
3156,00;0,0589
3155,00;0,0589
3154,00;0,0589
3153,00;0,0589
3152,00;0,0589
3151,00;0,0589
3150,00;0,0589
3149,00;0,0589
3148,00;0,0589
3147,00;0,0589
3146,00;0,0590
3145,00;0,0590
3144,00;0,0590
3143,00;0,0589
3142,00;0,0589
3141,00;0,0589
3140,00;0,0589
3139,00;0,0589
3138,00;0,0589
3137,00;0,0589
3136,00;0,0589
3135,00;0,0589
3134,00;0,0589
3133,00;0,0589
3132,00;0,0589
3131,00;0,0589
3130,00;0,0589
3129,00;0,0589
3128,00;0,0589
3127,00;0,0589
3126,00;0,0589
3125,00;0,0589
3124,00;0,0589
3123,00;0,0589
3122,00;0,0588
3121,00;0,0588
3120,00;0,0588
3119,00;0,0588
3118,00;0,0588
3117,00;0,0588
3116,00;0,0588
3115,00;0,0588
3114,00;0,0589
3113,00;0,0589
3112,00;0,0589
3111,00;0,0589
3110,00;0,0589
3109,00;0,0589
3108,00;0,0589
3107,00;0,0589
3106,00;0,0589
3105,00;0,0589
3104,00;0,0590
3103,00;0,0589
3102,00;0,0589
3101,00;0,0589
3100,00;0,0589
3099,00;0,0589
3098,00;0,0590
3097,00;0,0590
3096,00;0,0590
3095,00;0,0590
3094,00;0,0590
3093,00;0,0590
3092,00;0,0589
3091,00;0,0589
3090,00;0,0589
3089,00;0,0589
3088,00;0,0589
3087,00;0,0589
3086,00;0,0589
3085,00;0,0589
3084,00;0,0589
3083,00;0,0589
3082,00;0,0589
3081,00;0,0588
3080,00;0,0588
3079,00;0,0588
3078,00;0,0589
3077,00;0,0589
3076,00;0,0589
3075,00;0,0590
3074,00;0,0590
3073,00;0,0590
3072,00;0,0590
3071,00;0,0590
3070,00;0,0589
3069,00;0,0589
3068,00;0,0589
3067,00;0,0589
3066,00;0,0589
3065,00;0,0589
3064,00;0,0589
3063,00;0,0589
3062,00;0,0589
3061,00;0,0589
3060,00;0,0589
3059,00;0,0589
3058,00;0,0589
3057,00;0,0589
3056,00;0,0589
3055,00;0,0589
3054,00;0,0589
3053,00;0,0589
3052,00;0,0589
3051,00;0,0589
3050,00;0,0589
3049,00;0,0589
3048,00;0,0589
3047,00;0,0589
3046,00;0,0589
3045,00;0,0589
3044,00;0,0589
3043,00;0,0589
3042,00;0,0589
3041,00;0,0589
3040,00;0,0589
3039,00;0,0589
3038,00;0,0589
3037,00;0,0589
3036,00;0,0589
3035,00;0,0589
3034,00;0,0589
3033,00;0,0589
3032,00;0,0589
3031,00;0,0590
3030,00;0,0590
3029,00;0,0590
3028,00;0,0590
3027,00;0,0590
3026,00;0,0590
3025,00;0,0590
3024,00;0,0590
3023,00;0,0590
3022,00;0,0590
3021,00;0,0590
3020,00;0,0590
3019,00;0,0590
3018,00;0,0590
3017,00;0,0590
3016,00;0,0589
3015,00;0,0589
3014,00;0,0589
3013,00;0,0589
3012,00;0,0590
3011,00;0,0590
3010,00;0,0591
3009,00;0,0591
3008,00;0,0591
3007,00;0,0591
3006,00;0,0591
3005,00;0,0592
3004,00;0,0592
3003,00;0,0592
3002,00;0,0593
3001,00;0,0593
3000,00;0,0594
2999,00;0,0594
2998,00;0,0593
2997,00;0,0594
2996,00;0,0594
2995,00;0,0594
2994,00;0,0594
2993,00;0,0594
2992,00;0,0594
2991,00;0,0594
2990,00;0,0594
2989,00;0,0595
2988,00;0,0595
2987,00;0,0595
2986,00;0,0595
2985,00;0,0596
2984,00;0,0596
2983,00;0,0597
2982,00;0,0597
2981,00;0,0597
2980,00;0,0597
2979,00;0,0597
2978,00;0,0597
2977,00;0,0597
2976,00;0,0596
2975,00;0,0596
2974,00;0,0595
2973,00;0,0596
2972,00;0,0596
2971,00;0,0596
2970,00;0,0595
2969,00;0,0595
2968,00;0,0594
2967,00;0,0594
2966,00;0,0594
2965,00;0,0593
2964,00;0,0593
2963,00;0,0592
2962,00;0,0592
2961,00;0,0592
2960,00;0,0592
2959,00;0,0592
2958,00;0,0592
2957,00;0,0593
2956,00;0,0593
2955,00;0,0593
2954,00;0,0593
2953,00;0,0592
2952,00;0,0592
2951,00;0,0592
2950,00;0,0591
2949,00;0,0591
2948,00;0,0591
2947,00;0,0591
2946,00;0,0590
2945,00;0,0590
2944,00;0,0590
2943,00;0,0590
2942,00;0,0590
2941,00;0,0590
2940,00;0,0590
2939,00;0,0590
2938,00;0,0590
2937,00;0,0590
2936,00;0,0589
2935,00;0,0589
2934,00;0,0588
2933,00;0,0588
2932,00;0,0588
2931,00;0,0587
2930,00;0,0588
2929,00;0,0588
2928,00;0,0588
2927,00;0,0588
2926,00;0,0588
2925,00;0,0588
2924,00;0,0588
2923,00;0,0589
2922,00;0,0589
2921,00;0,0589
2920,00;0,0589
2919,00;0,0589
2918,00;0,0589
2917,00;0,0589
2916,00;0,0589
2915,00;0,0589
2914,00;0,0590
2913,00;0,0590
2912,00;0,0591
2911,00;0,0591
2910,00;0,0592
2909,00;0,0592
2908,00;0,0593
2907,00;0,0593
2906,00;0,0593
2905,00;0,0593
2904,00;0,0593
2903,00;0,0594
2902,00;0,0594
2901,00;0,0594
2900,00;0,0594
2899,00;0,0594
2898,00;0,0594
2897,00;0,0594
2896,00;0,0594
2895,00;0,0594
2894,00;0,0594
2893,00;0,0595
2892,00;0,0595
2891,00;0,0595
2890,00;0,0595
2889,00;0,0595
2888,00;0,0595
2887,00;0,0595
2886,00;0,0595
2885,00;0,0595
2884,00;0,0595
2883,00;0,0595
2882,00;0,0595
2881,00;0,0595
2880,00;0,0595
2879,00;0,0595
2878,00;0,0595
2877,00;0,0594
2876,00;0,0594
2875,00;0,0594
2874,00;0,0594
2873,00;0,0594
2872,00;0,0594
2871,00;0,0594
2870,00;0,0594
2869,00;0,0594
2868,00;0,0594
2867,00;0,0595
2866,00;0,0595
2865,00;0,0595
2864,00;0,0594
2863,00;0,0594
2862,00;0,0593
2861,00;0,0593
2860,00;0,0593
2859,00;0,0593
2858,00;0,0593
2857,00;0,0593
2856,00;0,0593
2855,00;0,0593
2854,00;0,0593
2853,00;0,0593
2852,00;0,0593
2851,00;0,0593
2850,00;0,0593
2849,00;0,0594
2848,00;0,0594
2847,00;0,0595
2846,00;0,0595
2845,00;0,0595
2844,00;0,0595
2843,00;0,0595
2842,00;0,0595
2841,00;0,0594
2840,00;0,0594
2839,00;0,0594
2838,00;0,0595
2837,00;0,0595
2836,00;0,0595
2835,00;0,0595
2834,00;0,0595
2833,00;0,0596
2832,00;0,0596
2831,00;0,0596
2830,00;0,0595
2829,00;0,0595
2828,00;0,0595
2827,00;0,0595
2826,00;0,0595
2825,00;0,0596
2824,00;0,0596
2823,00;0,0596
2822,00;0,0596
2821,00;0,0596
2820,00;0,0596
2819,00;0,0596
2818,00;0,0596
2817,00;0,0596
2816,00;0,0596
2815,00;0,0596
2814,00;0,0596
2813,00;0,0596
2812,00;0,0596
2811,00;0,0596
2810,00;0,0596
2809,00;0,0596
2808,00;0,0596
2807,00;0,0596
2806,00;0,0596
2805,00;0,0596
2804,00;0,0596
2803,00;0,0596
2802,00;0,0596
2801,00;0,0596
2800,00;0,0595
2799,00;0,0595
2798,00;0,0595
2797,00;0,0595
2796,00;0,0595
2795,00;0,0595
2794,00;0,0595
2793,00;0,0595
2792,00;0,0595
2791,00;0,0595
2790,00;0,0595
2789,00;0,0595
2788,00;0,0596
2787,00;0,0596
2786,00;0,0596
2785,00;0,0596
2784,00;0,0596
2783,00;0,0596
2782,00;0,0596
2781,00;0,0596
2780,00;0,0596
2779,00;0,0596
2778,00;0,0596
2777,00;0,0596
2776,00;0,0596
2775,00;0,0596
2774,00;0,0596
2773,00;0,0596
2772,00;0,0596
2771,00;0,0596
2770,00;0,0596
2769,00;0,0596
2768,00;0,0596
2767,00;0,0596
2766,00;0,0596
2765,00;0,0596
2764,00;0,0596
2763,00;0,0596
2762,00;0,0596
2761,00;0,0596
2760,00;0,0596
2759,00;0,0596
2758,00;0,0596
2757,00;0,0596
2756,00;0,0596
2755,00;0,0596
2754,00;0,0596
2753,00;0,0596
2752,00;0,0596
2751,00;0,0596
2750,00;0,0596
2749,00;0,0596
2748,00;0,0596
2747,00;0,0596
2746,00;0,0596
2745,00;0,0596
2744,00;0,0596
2743,00;0,0596
2742,00;0,0596
2741,00;0,0596
2740,00;0,0596
2739,00;0,0596
2738,00;0,0596
2737,00;0,0596
2736,00;0,0596
2735,00;0,0596
2734,00;0,0596
2733,00;0,0596
2732,00;0,0596
2731,00;0,0596
2730,00;0,0596
2729,00;0,0596
2728,00;0,0596
2727,00;0,0596
2726,00;0,0596
2725,00;0,0596
2724,00;0,0596
2723,00;0,0596
2722,00;0,0596
2721,00;0,0596
2720,00;0,0596
2719,00;0,0596
2718,00;0,0596
2717,00;0,0596
2716,00;0,0596
2715,00;0,0596
2714,00;0,0596
2713,00;0,0596
2712,00;0,0596
2711,00;0,0596
2710,00;0,0596
2709,00;0,0597
2708,00;0,0597
2707,00;0,0597
2706,00;0,0597
2705,00;0,0597
2704,00;0,0597
2703,00;0,0597
2702,00;0,0597
2701,00;0,0597
2700,00;0,0597
2699,00;0,0597
2698,00;0,0597
2697,00;0,0597
2696,00;0,0597
2695,00;0,0597
2694,00;0,0597
2693,00;0,0597
2692,00;0,0597
2691,00;0,0597
2690,00;0,0597
2689,00;0,0597
2688,00;0,0597
2687,00;0,0597
2686,00;0,0597
2685,00;0,0597
2684,00;0,0597
2683,00;0,0597
2682,00;0,0597
2681,00;0,0597
2680,00;0,0597
2679,00;0,0597
2678,00;0,0597
2677,00;0,0597
2676,00;0,0598
2675,00;0,0598
