Создан как новый массив данных;Образец 010 полученный BalashovM Дата пятница, марта 03 2023
cm-1;A
4000,00;0,0043
3999,00;0,0043
3998,00;0,0043
3997,00;0,0043
3996,00;0,0043
3995,00;0,0043
3994,00;0,0043
3993,00;0,0043
3992,00;0,0043
3991,00;0,0043
3990,00;0,0043
3989,00;0,0043
3988,00;0,0043
3987,00;0,0044
3986,00;0,0044
3985,00;0,0044
3984,00;0,0044
3983,00;0,0043
3982,00;0,0043
3981,00;0,0043
3980,00;0,0043
3979,00;0,0043
3978,00;0,0043
3977,00;0,0043
3976,00;0,0043
3975,00;0,0043
3974,00;0,0043
3973,00;0,0043
3972,00;0,0043
3971,00;0,0043
3970,00;0,0044
3969,00;0,0044
3968,00;0,0043
3967,00;0,0043
3966,00;0,0043
3965,00;0,0043
3964,00;0,0043
3963,00;0,0043
3962,00;0,0043
3961,00;0,0043
3960,00;0,0043
3959,00;0,0043
3958,00;0,0044
3957,00;0,0044
3956,00;0,0044
3955,00;0,0044
3954,00;0,0044
3953,00;0,0044
3952,00;0,0043
3951,00;0,0043
3950,00;0,0043
3949,00;0,0043
3948,00;0,0044
3947,00;0,0044
3946,00;0,0043
3945,00;0,0043
3944,00;0,0043
3943,00;0,0043
3942,00;0,0043
3941,00;0,0043
3940,00;0,0043
3939,00;0,0044
3938,00;0,0044
3937,00;0,0044
3936,00;0,0044
3935,00;0,0044
3934,00;0,0044
3933,00;0,0044
3932,00;0,0044
3931,00;0,0043
3930,00;0,0043
3929,00;0,0043
3928,00;0,0044
3927,00;0,0044
3926,00;0,0044
3925,00;0,0044
3924,00;0,0044
3923,00;0,0044
3922,00;0,0044
3921,00;0,0044
3920,00;0,0044
3919,00;0,0044
3918,00;0,0044
3917,00;0,0044
3916,00;0,0044
3915,00;0,0044
3914,00;0,0044
3913,00;0,0044
3912,00;0,0044
3911,00;0,0044
3910,00;0,0044
3909,00;0,0044
3908,00;0,0044
3907,00;0,0044
3906,00;0,0044
3905,00;0,0044
3904,00;0,0044
3903,00;0,0044
3902,00;0,0044
3901,00;0,0044
3900,00;0,0044
3899,00;0,0044
3898,00;0,0044
3897,00;0,0044
3896,00;0,0044
3895,00;0,0044
3894,00;0,0044
3893,00;0,0044
3892,00;0,0044
3891,00;0,0044
3890,00;0,0044
3889,00;0,0044
3888,00;0,0044
3887,00;0,0044
3886,00;0,0044
3885,00;0,0044
3884,00;0,0044
3883,00;0,0044
3882,00;0,0044
3881,00;0,0044
3880,00;0,0044
3879,00;0,0044
3878,00;0,0044
3877,00;0,0044
3876,00;0,0044
3875,00;0,0044
3874,00;0,0044
3873,00;0,0044
3872,00;0,0044
3871,00;0,0044
3870,00;0,0044
3869,00;0,0044
3868,00;0,0044
3867,00;0,0044
3866,00;0,0044
3865,00;0,0044
3864,00;0,0044
3863,00;0,0044
3862,00;0,0044
3861,00;0,0044
3860,00;0,0044
3859,00;0,0044
3858,00;0,0044
3857,00;0,0044
3856,00;0,0044
3855,00;0,0044
3854,00;0,0044
3853,00;0,0044
3852,00;0,0044
3851,00;0,0044
3850,00;0,0044
3849,00;0,0044
3848,00;0,0044
3847,00;0,0044
3846,00;0,0044
3845,00;0,0044
3844,00;0,0044
3843,00;0,0044
3842,00;0,0044
3841,00;0,0044
3840,00;0,0044
3839,00;0,0044
3838,00;0,0044
3837,00;0,0044
3836,00;0,0044
3835,00;0,0044
3834,00;0,0044
3833,00;0,0044
3832,00;0,0044
3831,00;0,0044
3830,00;0,0044
3829,00;0,0044
3828,00;0,0044
3827,00;0,0044
3826,00;0,0044
3825,00;0,0044
3824,00;0,0044
3823,00;0,0044
3822,00;0,0044
3821,00;0,0044
3820,00;0,0044
3819,00;0,0044
3818,00;0,0044
3817,00;0,0044
3816,00;0,0044
3815,00;0,0044
3814,00;0,0044
3813,00;0,0044
3812,00;0,0044
3811,00;0,0044
3810,00;0,0044
3809,00;0,0044
3808,00;0,0044
3807,00;0,0044
3806,00;0,0044
3805,00;0,0044
3804,00;0,0044
3803,00;0,0044
3802,00;0,0044
3801,00;0,0044
3800,00;0,0044
3799,00;0,0044
3798,00;0,0044
3797,00;0,0044
3796,00;0,0044
3795,00;0,0044
3794,00;0,0044
3793,00;0,0044
3792,00;0,0044
3791,00;0,0044
3790,00;0,0044
3789,00;0,0044
3788,00;0,0044
3787,00;0,0044
3786,00;0,0044
3785,00;0,0044
3784,00;0,0044
3783,00;0,0044
3782,00;0,0044
3781,00;0,0044
3780,00;0,0044
3779,00;0,0044
3778,00;0,0044
3777,00;0,0044
3776,00;0,0044
3775,00;0,0044
3774,00;0,0044
3773,00;0,0044
3772,00;0,0044
3771,00;0,0044
3770,00;0,0044
3769,00;0,0044
3768,00;0,0044
3767,00;0,0044
3766,00;0,0044
3765,00;0,0044
3764,00;0,0044
3763,00;0,0044
3762,00;0,0044
3761,00;0,0044
3760,00;0,0044
3759,00;0,0044
3758,00;0,0044
3757,00;0,0044
3756,00;0,0044
3755,00;0,0044
3754,00;0,0045
3753,00;0,0045
3752,00;0,0045
3751,00;0,0045
3750,00;0,0045
3749,00;0,0045
3748,00;0,0045
3747,00;0,0044
3746,00;0,0044
3745,00;0,0044
3744,00;0,0044
3743,00;0,0044
3742,00;0,0044
3741,00;0,0044
3740,00;0,0044
3739,00;0,0044
3738,00;0,0044
3737,00;0,0044
3736,00;0,0044
3735,00;0,0044
3734,00;0,0044
3733,00;0,0044
3732,00;0,0044
3731,00;0,0044
3730,00;0,0044
3729,00;0,0044
3728,00;0,0044
3727,00;0,0044
3726,00;0,0044
3725,00;0,0044
3724,00;0,0044
3723,00;0,0044
3722,00;0,0044
3721,00;0,0044
3720,00;0,0044
3719,00;0,0044
3718,00;0,0044
3717,00;0,0044
3716,00;0,0044
3715,00;0,0044
3714,00;0,0043
3713,00;0,0043
3712,00;0,0043
3711,00;0,0043
3710,00;0,0043
3709,00;0,0043
3708,00;0,0043
3707,00;0,0043
3706,00;0,0043
3705,00;0,0043
3704,00;0,0043
3703,00;0,0043
3702,00;0,0043
3701,00;0,0043
3700,00;0,0043
3699,00;0,0043
3698,00;0,0043
3697,00;0,0043
3696,00;0,0043
3695,00;0,0043
3694,00;0,0043
3693,00;0,0043
3692,00;0,0043
3691,00;0,0043
3690,00;0,0043
3689,00;0,0043
3688,00;0,0043
3687,00;0,0043
3686,00;0,0044
3685,00;0,0044
3684,00;0,0044
3683,00;0,0044
3682,00;0,0044
3681,00;0,0044
3680,00;0,0044
3679,00;0,0044
3678,00;0,0044
3677,00;0,0044
3676,00;0,0044
3675,00;0,0044
3674,00;0,0044
3673,00;0,0044
3672,00;0,0044
3671,00;0,0044
3670,00;0,0044
3669,00;0,0044
3668,00;0,0044
3667,00;0,0044
3666,00;0,0044
3665,00;0,0044
3664,00;0,0044
3663,00;0,0044
3662,00;0,0044
3661,00;0,0044
3660,00;0,0045
3659,00;0,0045
3658,00;0,0045
3657,00;0,0045
3656,00;0,0045
3655,00;0,0045
3654,00;0,0045
3653,00;0,0045
3652,00;0,0045
3651,00;0,0046
3650,00;0,0046
3649,00;0,0046
3648,00;0,0046
3647,00;0,0046
3646,00;0,0046
3645,00;0,0046
3644,00;0,0046
3643,00;0,0046
3642,00;0,0046
3641,00;0,0046
3640,00;0,0046
3639,00;0,0046
3638,00;0,0047
3637,00;0,0047
3636,00;0,0047
3635,00;0,0047
3634,00;0,0047
3633,00;0,0047
3632,00;0,0047
3631,00;0,0047
3630,00;0,0048
3629,00;0,0048
3628,00;0,0048
3627,00;0,0048
3626,00;0,0048
3625,00;0,0048
3624,00;0,0048
3623,00;0,0049
3622,00;0,0049
3621,00;0,0049
3620,00;0,0049
3619,00;0,0049
3618,00;0,0049
3617,00;0,0049
3616,00;0,0050
3615,00;0,0050
3614,00;0,0050
3613,00;0,0050
3612,00;0,0050
3611,00;0,0050
3610,00;0,0050
3609,00;0,0051
3608,00;0,0051
3607,00;0,0051
3606,00;0,0051
3605,00;0,0051
3604,00;0,0051
3603,00;0,0052
3602,00;0,0052
3601,00;0,0052
3600,00;0,0052
3599,00;0,0052
3598,00;0,0052
3597,00;0,0052
3596,00;0,0052
3595,00;0,0053
3594,00;0,0053
3593,00;0,0053
3592,00;0,0053
3591,00;0,0053
3590,00;0,0053
3589,00;0,0053
3588,00;0,0054
3587,00;0,0054
3586,00;0,0054
3585,00;0,0054
3584,00;0,0054
3583,00;0,0054
3582,00;0,0054
3581,00;0,0055
3580,00;0,0055
3579,00;0,0055
3578,00;0,0055
3577,00;0,0055
3576,00;0,0055
3575,00;0,0055
3574,00;0,0056
3573,00;0,0056
3572,00;0,0056
3571,00;0,0056
3570,00;0,0056
3569,00;0,0056
3568,00;0,0056
3567,00;0,0057
3566,00;0,0057
3565,00;0,0057
3564,00;0,0057
3563,00;0,0057
3562,00;0,0057
3561,00;0,0057
3560,00;0,0058
3559,00;0,0058
3558,00;0,0058
3557,00;0,0058
3556,00;0,0058
3555,00;0,0058
3554,00;0,0058
3553,00;0,0059
3552,00;0,0059
3551,00;0,0059
3550,00;0,0059
3549,00;0,0059
3548,00;0,0059
3547,00;0,0059
3546,00;0,0060
3545,00;0,0060
3544,00;0,0060
3543,00;0,0060
3542,00;0,0060
3541,00;0,0060
3540,00;0,0061
3539,00;0,0061
3538,00;0,0061
3537,00;0,0061
3536,00;0,0061
3535,00;0,0061
3534,00;0,0061
3533,00;0,0061
3532,00;0,0062
3531,00;0,0062
3530,00;0,0062
3529,00;0,0062
3528,00;0,0062
3527,00;0,0062
3526,00;0,0062
3525,00;0,0062
3524,00;0,0063
3523,00;0,0063
3522,00;0,0063
3521,00;0,0063
3520,00;0,0063
3519,00;0,0063
3518,00;0,0064
3517,00;0,0064
3516,00;0,0064
3515,00;0,0064
3514,00;0,0064
3513,00;0,0064
3512,00;0,0064
3511,00;0,0065
3510,00;0,0065
3509,00;0,0065
3508,00;0,0065
3507,00;0,0065
3506,00;0,0065
3505,00;0,0065
3504,00;0,0065
3503,00;0,0066
3502,00;0,0066
3501,00;0,0066
3500,00;0,0066
3499,00;0,0066
3498,00;0,0066
3497,00;0,0066
3496,00;0,0066
3495,00;0,0067
3494,00;0,0067
3493,00;0,0067
3492,00;0,0067
3491,00;0,0067
3490,00;0,0067
3489,00;0,0067
3488,00;0,0067
3487,00;0,0068
3486,00;0,0068
3485,00;0,0068
3484,00;0,0068
3483,00;0,0068
3482,00;0,0068
3481,00;0,0068
3480,00;0,0068
3479,00;0,0069
3478,00;0,0069
3477,00;0,0069
3476,00;0,0069
3475,00;0,0069
3474,00;0,0069
3473,00;0,0069
3472,00;0,0069
3471,00;0,0069
3470,00;0,0070
3469,00;0,0070
3468,00;0,0070
3467,00;0,0070
3466,00;0,0070
3465,00;0,0070
3464,00;0,0070
3463,00;0,0070
3462,00;0,0070
3461,00;0,0070
3460,00;0,0071
3459,00;0,0071
3458,00;0,0071
3457,00;0,0071
3456,00;0,0071
3455,00;0,0071
3454,00;0,0071
3453,00;0,0071
3452,00;0,0072
3451,00;0,0072
3450,00;0,0072
3449,00;0,0072
3448,00;0,0072
3447,00;0,0072
3446,00;0,0072
3445,00;0,0072
3444,00;0,0073
3443,00;0,0073
3442,00;0,0073
3441,00;0,0073
3440,00;0,0073
3439,00;0,0073
3438,00;0,0073
3437,00;0,0074
3436,00;0,0074
3435,00;0,0074
3434,00;0,0074
3433,00;0,0074
3432,00;0,0074
3431,00;0,0074
3430,00;0,0074
3429,00;0,0074
3428,00;0,0074
3427,00;0,0075
3426,00;0,0075
3425,00;0,0075
3424,00;0,0075
3423,00;0,0075
3422,00;0,0075
3421,00;0,0075
3420,00;0,0075
3419,00;0,0076
3418,00;0,0076
3417,00;0,0076
3416,00;0,0076
3415,00;0,0076
3414,00;0,0076
3413,00;0,0076
3412,00;0,0076
3411,00;0,0076
3410,00;0,0076
3409,00;0,0076
3408,00;0,0077
3407,00;0,0077
3406,00;0,0077
3405,00;0,0077
3404,00;0,0077
3403,00;0,0077
3402,00;0,0077
3401,00;0,0077
3400,00;0,0077
3399,00;0,0077
3398,00;0,0078
3397,00;0,0078
3396,00;0,0078
3395,00;0,0078
3394,00;0,0078
3393,00;0,0078
3392,00;0,0078
3391,00;0,0078
3390,00;0,0078
3389,00;0,0078
3388,00;0,0078
3387,00;0,0078
3386,00;0,0079
3385,00;0,0079
3384,00;0,0079
3383,00;0,0079
3382,00;0,0079
3381,00;0,0079
3380,00;0,0079
3379,00;0,0079
3378,00;0,0079
3377,00;0,0079
3376,00;0,0079
3375,00;0,0080
3374,00;0,0080
3373,00;0,0080
3372,00;0,0080
3371,00;0,0080
3370,00;0,0080
3369,00;0,0080
3368,00;0,0080
3367,00;0,0080
3366,00;0,0080
3365,00;0,0080
3364,00;0,0080
3363,00;0,0080
3362,00;0,0080
3361,00;0,0080
3360,00;0,0080
3359,00;0,0081
3358,00;0,0081
3357,00;0,0081
3356,00;0,0081
3355,00;0,0081
3354,00;0,0081
3353,00;0,0081
3352,00;0,0081
3351,00;0,0081
3350,00;0,0081
3349,00;0,0081
3348,00;0,0081
3347,00;0,0081
3346,00;0,0081
3345,00;0,0081
3344,00;0,0081
3343,00;0,0081
3342,00;0,0082
3341,00;0,0082
3340,00;0,0082
3339,00;0,0082
3338,00;0,0082
3337,00;0,0082
3336,00;0,0082
3335,00;0,0082
3334,00;0,0082
3333,00;0,0082
3332,00;0,0082
3331,00;0,0082
3330,00;0,0082
3329,00;0,0082
3328,00;0,0082
3327,00;0,0082
3326,00;0,0082
3325,00;0,0082
3324,00;0,0082
3323,00;0,0082
3322,00;0,0082
3321,00;0,0082
3320,00;0,0083
3319,00;0,0083
3318,00;0,0083
3317,00;0,0083
3316,00;0,0082
3315,00;0,0082
3314,00;0,0082
3313,00;0,0083
3312,00;0,0083
3311,00;0,0083
3310,00;0,0083
3309,00;0,0083
3308,00;0,0083
3307,00;0,0083
3306,00;0,0083
3305,00;0,0083
3304,00;0,0083
3303,00;0,0083
3302,00;0,0083
3301,00;0,0083
3300,00;0,0083
3299,00;0,0083
3298,00;0,0083
3297,00;0,0083
3296,00;0,0083
3295,00;0,0083
3294,00;0,0083
3293,00;0,0083
3292,00;0,0083
3291,00;0,0083
3290,00;0,0083
3289,00;0,0083
3288,00;0,0083
3287,00;0,0083
3286,00;0,0083
3285,00;0,0083
3284,00;0,0084
3283,00;0,0084
3282,00;0,0084
3281,00;0,0084
3280,00;0,0084
3279,00;0,0084
3278,00;0,0084
3277,00;0,0084
3276,00;0,0084
3275,00;0,0084
3274,00;0,0084
3273,00;0,0084
3272,00;0,0084
3271,00;0,0084
3270,00;0,0084
3269,00;0,0084
3268,00;0,0084
3267,00;0,0084
3266,00;0,0084
3265,00;0,0085
3264,00;0,0085
3263,00;0,0085
3262,00;0,0085
3261,00;0,0085
3260,00;0,0085
3259,00;0,0085
3258,00;0,0085
3257,00;0,0085
3256,00;0,0085
3255,00;0,0085
3254,00;0,0085
3253,00;0,0085
3252,00;0,0085
3251,00;0,0085
3250,00;0,0085
3249,00;0,0086
3248,00;0,0086
3247,00;0,0086
3246,00;0,0086
3245,00;0,0086
3244,00;0,0086
3243,00;0,0085
3242,00;0,0085
3241,00;0,0085
3240,00;0,0086
3239,00;0,0086
3238,00;0,0086
3237,00;0,0086
3236,00;0,0086
3235,00;0,0086
3234,00;0,0086
3233,00;0,0086
3232,00;0,0087
3231,00;0,0087
3230,00;0,0087
3229,00;0,0087
3228,00;0,0087
3227,00;0,0087
3226,00;0,0087
3225,00;0,0087
3224,00;0,0087
3223,00;0,0087
3222,00;0,0087
3221,00;0,0087
3220,00;0,0087
3219,00;0,0087
3218,00;0,0087
3217,00;0,0087
3216,00;0,0087
3215,00;0,0087
3214,00;0,0087
3213,00;0,0087
3212,00;0,0088
3211,00;0,0088
3210,00;0,0088
3209,00;0,0088
3208,00;0,0088
3207,00;0,0088
3206,00;0,0088
3205,00;0,0088
3204,00;0,0088
3203,00;0,0088
3202,00;0,0088
3201,00;0,0088
3200,00;0,0088
3199,00;0,0088
3198,00;0,0088
3197,00;0,0088
3196,00;0,0088
3195,00;0,0088
3194,00;0,0089
3193,00;0,0089
3192,00;0,0089
3191,00;0,0089
3190,00;0,0089
3189,00;0,0089
3188,00;0,0089
3187,00;0,0089
3186,00;0,0089
3185,00;0,0089
3184,00;0,0090
3183,00;0,0089
3182,00;0,0089
3181,00;0,0089
3180,00;0,0089
3179,00;0,0089
3178,00;0,0089
3177,00;0,0090
3176,00;0,0090
3175,00;0,0090
3174,00;0,0090
3173,00;0,0090
3172,00;0,0090
3171,00;0,0090
3170,00;0,0090
3169,00;0,0090
3168,00;0,0090
3167,00;0,0090
3166,00;0,0090
3165,00;0,0090
3164,00;0,0090
3163,00;0,0091
3162,00;0,0091
3161,00;0,0091
3160,00;0,0090
3159,00;0,0090
3158,00;0,0090
3157,00;0,0090
3156,00;0,0090
3155,00;0,0090
3154,00;0,0090
3153,00;0,0090
3152,00;0,0090
3151,00;0,0090
3150,00;0,0090
3149,00;0,0090
3148,00;0,0090
3147,00;0,0090
3146,00;0,0090
3145,00;0,0090
3144,00;0,0090
3143,00;0,0090
3142,00;0,0090
3141,00;0,0090
3140,00;0,0090
3139,00;0,0090
3138,00;0,0090
3137,00;0,0090
3136,00;0,0090
3135,00;0,0090
3134,00;0,0089
3133,00;0,0090
3132,00;0,0090
3131,00;0,0090
3130,00;0,0090
3129,00;0,0090
3128,00;0,0090
3127,00;0,0090
3126,00;0,0089
3125,00;0,0089
3124,00;0,0089
3123,00;0,0089
3122,00;0,0089
3121,00;0,0089
3120,00;0,0089
3119,00;0,0089
3118,00;0,0089
3117,00;0,0089
3116,00;0,0089
3115,00;0,0089
3114,00;0,0089
3113,00;0,0089
3112,00;0,0089
3111,00;0,0089
3110,00;0,0089
3109,00;0,0089
3108,00;0,0089
3107,00;0,0089
3106,00;0,0089
3105,00;0,0089
3104,00;0,0089
3103,00;0,0089
3102,00;0,0089
3101,00;0,0089
3100,00;0,0089
3099,00;0,0089
3098,00;0,0089
3097,00;0,0089
3096,00;0,0089
3095,00;0,0089
3094,00;0,0089
3093,00;0,0089
3092,00;0,0089
3091,00;0,0089
3090,00;0,0089
3089,00;0,0089
3088,00;0,0089
3087,00;0,0089
3086,00;0,0089
3085,00;0,0088
3084,00;0,0088
3083,00;0,0088
3082,00;0,0088
3081,00;0,0088
3080,00;0,0088
3079,00;0,0088
3078,00;0,0088
3077,00;0,0088
3076,00;0,0088
3075,00;0,0088
3074,00;0,0088
3073,00;0,0088
3072,00;0,0088
3071,00;0,0088
3070,00;0,0088
3069,00;0,0088
3068,00;0,0088
3067,00;0,0088
3066,00;0,0088
3065,00;0,0088
3064,00;0,0088
3063,00;0,0088
3062,00;0,0088
3061,00;0,0088
3060,00;0,0088
3059,00;0,0088
3058,00;0,0088
3057,00;0,0088
3056,00;0,0088
3055,00;0,0088
3054,00;0,0087
3053,00;0,0087
3052,00;0,0087
3051,00;0,0087
3050,00;0,0087
3049,00;0,0087
3048,00;0,0087
3047,00;0,0087
3046,00;0,0087
3045,00;0,0087
3044,00;0,0087
3043,00;0,0087
3042,00;0,0087
3041,00;0,0087
3040,00;0,0087
3039,00;0,0087
3038,00;0,0087
3037,00;0,0087
3036,00;0,0086
3035,00;0,0086
3034,00;0,0086
3033,00;0,0086
3032,00;0,0086
3031,00;0,0086
3030,00;0,0086
3029,00;0,0086
3028,00;0,0086
3027,00;0,0086
3026,00;0,0086
3025,00;0,0086
3024,00;0,0086
3023,00;0,0086
3022,00;0,0086
3021,00;0,0086
3020,00;0,0086
3019,00;0,0086
3018,00;0,0086
3017,00;0,0085
3016,00;0,0085
3015,00;0,0085
3014,00;0,0084
3013,00;0,0084
3012,00;0,0085
3011,00;0,0085
3010,00;0,0085
3009,00;0,0086
3008,00;0,0086
3007,00;0,0086
3006,00;0,0086
3005,00;0,0086
3004,00;0,0086
3003,00;0,0086
3002,00;0,0086
3001,00;0,0087
3000,00;0,0087
2999,00;0,0087
2998,00;0,0087
2997,00;0,0087
2996,00;0,0088
2995,00;0,0088
2994,00;0,0088
2993,00;0,0088
2992,00;0,0088
2991,00;0,0088
2990,00;0,0088
2989,00;0,0088
2988,00;0,0088
2987,00;0,0089
2986,00;0,0089
2985,00;0,0089
2984,00;0,0090
2983,00;0,0090
2982,00;0,0091
2981,00;0,0091
2980,00;0,0091
2979,00;0,0091
2978,00;0,0091
2977,00;0,0092
2976,00;0,0092
2975,00;0,0092
2974,00;0,0093
2973,00;0,0093
2972,00;0,0093
2971,00;0,0093
2970,00;0,0093
2969,00;0,0093
2968,00;0,0094
2967,00;0,0094
2966,00;0,0094
2965,00;0,0094
2964,00;0,0093
2963,00;0,0093
2962,00;0,0093
2961,00;0,0093
2960,00;0,0093
2959,00;0,0093
2958,00;0,0094
2957,00;0,0094
2956,00;0,0094
2955,00;0,0095
2954,00;0,0095
2953,00;0,0095
2952,00;0,0096
2951,00;0,0096
2950,00;0,0096
2949,00;0,0097
2948,00;0,0097
2947,00;0,0097
2946,00;0,0097
2945,00;0,0098
2944,00;0,0098
2943,00;0,0098
2942,00;0,0098
2941,00;0,0098
2940,00;0,0098
2939,00;0,0097
2938,00;0,0097
2937,00;0,0096
2936,00;0,0095
2935,00;0,0095
2934,00;0,0094
2933,00;0,0094
2932,00;0,0094
2931,00;0,0093
2930,00;0,0093
2929,00;0,0092
2928,00;0,0092
2927,00;0,0091
2926,00;0,0091
2925,00;0,0091
2924,00;0,0091
2923,00;0,0091
2922,00;0,0091
2921,00;0,0091
2920,00;0,0091
2919,00;0,0091
2918,00;0,0092
2917,00;0,0092
2916,00;0,0093
2915,00;0,0093
2914,00;0,0093
2913,00;0,0093
2912,00;0,0094
2911,00;0,0094
2910,00;0,0095
2909,00;0,0095
2908,00;0,0095
2907,00;0,0095
2906,00;0,0095
2905,00;0,0095
2904,00;0,0094
2903,00;0,0094
2902,00;0,0094
2901,00;0,0094
2900,00;0,0093
2899,00;0,0093
2898,00;0,0093
2897,00;0,0093
2896,00;0,0092
2895,00;0,0092
2894,00;0,0092
2893,00;0,0092
2892,00;0,0092
2891,00;0,0092
2890,00;0,0092
2889,00;0,0092
2888,00;0,0092
2887,00;0,0092
2886,00;0,0092
2885,00;0,0092
2884,00;0,0092
2883,00;0,0092
2882,00;0,0092
2881,00;0,0092
2880,00;0,0092
2879,00;0,0092
2878,00;0,0091
2877,00;0,0091
2876,00;0,0091
2875,00;0,0091
2874,00;0,0091
2873,00;0,0091
2872,00;0,0091
2871,00;0,0092
2870,00;0,0092
2869,00;0,0092
2868,00;0,0092
2867,00;0,0092
2866,00;0,0092
2865,00;0,0091
2864,00;0,0091
2863,00;0,0090
2862,00;0,0089
2861,00;0,0088
2860,00;0,0088
2859,00;0,0087
2858,00;0,0086
2857,00;0,0085
2856,00;0,0085
2855,00;0,0085
2854,00;0,0085
2853,00;0,0084
2852,00;0,0084
2851,00;0,0084
2850,00;0,0084
2849,00;0,0084
2848,00;0,0084
2847,00;0,0085
2846,00;0,0085
2845,00;0,0085
2844,00;0,0085
2843,00;0,0085
2842,00;0,0085
2841,00;0,0084
2840,00;0,0084
2839,00;0,0084
2838,00;0,0084
2837,00;0,0084
2836,00;0,0084
2835,00;0,0084
2834,00;0,0084
2833,00;0,0084
2832,00;0,0084
2831,00;0,0084
2830,00;0,0084
2829,00;0,0084
2828,00;0,0084
2827,00;0,0084
2826,00;0,0084
2825,00;0,0083
2824,00;0,0083
2823,00;0,0083
2822,00;0,0083
2821,00;0,0083
2820,00;0,0083
2819,00;0,0083
2818,00;0,0082
2817,00;0,0082
2816,00;0,0082
2815,00;0,0082
2814,00;0,0082
2813,00;0,0082
2812,00;0,0082
2811,00;0,0082
2810,00;0,0082
2809,00;0,0082
2808,00;0,0082
2807,00;0,0081
2806,00;0,0081
2805,00;0,0081
2804,00;0,0081
2803,00;0,0081
2802,00;0,0081
2801,00;0,0081
2800,00;0,0080
2799,00;0,0080
2798,00;0,0080
2797,00;0,0080
2796,00;0,0080
2795,00;0,0080
2794,00;0,0080
2793,00;0,0080
2792,00;0,0079
2791,00;0,0079
2790,00;0,0079
2789,00;0,0079
2788,00;0,0079
2787,00;0,0079
2786,00;0,0079
2785,00;0,0079
2784,00;0,0079
2783,00;0,0079
2782,00;0,0078
2781,00;0,0078
2780,00;0,0078
2779,00;0,0078
2778,00;0,0078
2777,00;0,0078
2776,00;0,0078
2775,00;0,0078
2774,00;0,0078
2773,00;0,0078
2772,00;0,0077
2771,00;0,0077
2770,00;0,0077
2769,00;0,0077
2768,00;0,0077
2767,00;0,0077
2766,00;0,0077
2765,00;0,0077
2764,00;0,0077
2763,00;0,0077
2762,00;0,0077
2761,00;0,0077
2760,00;0,0077
2759,00;0,0076
2758,00;0,0076
2757,00;0,0076
2756,00;0,0076
2755,00;0,0076
2754,00;0,0076
2753,00;0,0076
2752,00;0,0076
2751,00;0,0076
2750,00;0,0076
2749,00;0,0076
2748,00;0,0076
2747,00;0,0076
2746,00;0,0076
2745,00;0,0076
2744,00;0,0076
2743,00;0,0076
2742,00;0,0075
2741,00;0,0075
2740,00;0,0075
2739,00;0,0075
2738,00;0,0075
2737,00;0,0075
2736,00;0,0075
2735,00;0,0075
2734,00;0,0075
2733,00;0,0075
2732,00;0,0075
2731,00;0,0075
2730,00;0,0075
2729,00;0,0075
2728,00;0,0075
2727,00;0,0075
2726,00;0,0075
2725,00;0,0075
2724,00;0,0074
2723,00;0,0074
2722,00;0,0074
2721,00;0,0074
2720,00;0,0074
2719,00;0,0074
2718,00;0,0074
2717,00;0,0074
2716,00;0,0074
2715,00;0,0074
2714,00;0,0074
2713,00;0,0074
2712,00;0,0074
2711,00;0,0074
2710,00;0,0074
2709,00;0,0074
2708,00;0,0074
2707,00;0,0074
2706,00;0,0074
2705,00;0,0074
2704,00;0,0074
2703,00;0,0074
2702,00;0,0074
2701,00;0,0073
2700,00;0,0073
2699,00;0,0073
2698,00;0,0073
2697,00;0,0073
2696,00;0,0073
2695,00;0,0073
2694,00;0,0073
2693,00;0,0073
2692,00;0,0073
2691,00;0,0073
2690,00;0,0073
2689,00;0,0073
2688,00;0,0073
2687,00;0,0073
2686,00;0,0073
2685,00;0,0073
2684,00;0,0073
2683,00;0,0073
2682,00;0,0073
2681,00;0,0073
2680,00;0,0073
2679,00;0,0073
2678,00;0,0073
2677,00;0,0073
2676,00;0,0073
2675,00;0,0073
