Создан как новый массив данных;Образец 013 полученный BalashovM Дата пятница, марта 03 2023
cm-1;A
4000,00;0,0493
3999,00;0,0493
3998,00;0,0492
3997,00;0,0492
3996,00;0,0492
3995,00;0,0492
3994,00;0,0493
3993,00;0,0493
3992,00;0,0493
3991,00;0,0493
3990,00;0,0493
3989,00;0,0493
3988,00;0,0493
3987,00;0,0493
3986,00;0,0493
3985,00;0,0493
3984,00;0,0493
3983,00;0,0493
3982,00;0,0493
3981,00;0,0493
3980,00;0,0493
3979,00;0,0493
3978,00;0,0493
3977,00;0,0493
3976,00;0,0493
3975,00;0,0493
3974,00;0,0493
3973,00;0,0493
3972,00;0,0493
3971,00;0,0493
3970,00;0,0493
3969,00;0,0493
3968,00;0,0493
3967,00;0,0493
3966,00;0,0493
3965,00;0,0493
3964,00;0,0493
3963,00;0,0494
3962,00;0,0494
3961,00;0,0494
3960,00;0,0494
3959,00;0,0494
3958,00;0,0494
3957,00;0,0494
3956,00;0,0494
3955,00;0,0494
3954,00;0,0494
3953,00;0,0494
3952,00;0,0494
3951,00;0,0494
3950,00;0,0494
3949,00;0,0494
3948,00;0,0494
3947,00;0,0494
3946,00;0,0494
3945,00;0,0494
3944,00;0,0494
3943,00;0,0494
3942,00;0,0494
3941,00;0,0494
3940,00;0,0494
3939,00;0,0494
3938,00;0,0494
3937,00;0,0494
3936,00;0,0494
3935,00;0,0494
3934,00;0,0494
3933,00;0,0494
3932,00;0,0494
3931,00;0,0494
3930,00;0,0494
3929,00;0,0494
3928,00;0,0494
3927,00;0,0494
3926,00;0,0494
3925,00;0,0494
3924,00;0,0494
3923,00;0,0494
3922,00;0,0494
3921,00;0,0494
3920,00;0,0495
3919,00;0,0495
3918,00;0,0495
3917,00;0,0495
3916,00;0,0495
3915,00;0,0495
3914,00;0,0495
3913,00;0,0495
3912,00;0,0495
3911,00;0,0495
3910,00;0,0495
3909,00;0,0495
3908,00;0,0495
3907,00;0,0495
3906,00;0,0495
3905,00;0,0495
3904,00;0,0495
3903,00;0,0495
3902,00;0,0495
3901,00;0,0495
3900,00;0,0495
3899,00;0,0495
3898,00;0,0495
3897,00;0,0495
3896,00;0,0495
3895,00;0,0495
3894,00;0,0495
3893,00;0,0495
3892,00;0,0495
3891,00;0,0495
3890,00;0,0495
3889,00;0,0495
3888,00;0,0495
3887,00;0,0495
3886,00;0,0495
3885,00;0,0495
3884,00;0,0495
3883,00;0,0495
3882,00;0,0495
3881,00;0,0495
3880,00;0,0495
3879,00;0,0495
3878,00;0,0495
3877,00;0,0495
3876,00;0,0495
3875,00;0,0495
3874,00;0,0495
3873,00;0,0495
3872,00;0,0495
3871,00;0,0495
3870,00;0,0495
3869,00;0,0495
3868,00;0,0495
3867,00;0,0495
3866,00;0,0495
3865,00;0,0495
3864,00;0,0495
3863,00;0,0495
3862,00;0,0495
3861,00;0,0495
3860,00;0,0495
3859,00;0,0495
3858,00;0,0495
3857,00;0,0496
3856,00;0,0496
3855,00;0,0496
3854,00;0,0496
3853,00;0,0496
3852,00;0,0496
3851,00;0,0496
3850,00;0,0496
3849,00;0,0496
3848,00;0,0496
3847,00;0,0496
3846,00;0,0496
3845,00;0,0496
3844,00;0,0496
3843,00;0,0496
3842,00;0,0496
3841,00;0,0496
3840,00;0,0496
3839,00;0,0496
3838,00;0,0496
3837,00;0,0496
3836,00;0,0496
3835,00;0,0496
3834,00;0,0496
3833,00;0,0496
3832,00;0,0496
3831,00;0,0496
3830,00;0,0496
3829,00;0,0496
3828,00;0,0496
3827,00;0,0496
3826,00;0,0496
3825,00;0,0496
3824,00;0,0496
3823,00;0,0496
3822,00;0,0496
3821,00;0,0496
3820,00;0,0496
3819,00;0,0496
3818,00;0,0496
3817,00;0,0496
3816,00;0,0496
3815,00;0,0496
3814,00;0,0496
3813,00;0,0496
3812,00;0,0496
3811,00;0,0496
3810,00;0,0496
3809,00;0,0496
3808,00;0,0496
3807,00;0,0496
3806,00;0,0496
3805,00;0,0496
3804,00;0,0496
3803,00;0,0496
3802,00;0,0496
3801,00;0,0496
3800,00;0,0496
3799,00;0,0496
3798,00;0,0496
3797,00;0,0496
3796,00;0,0496
3795,00;0,0496
3794,00;0,0496
3793,00;0,0496
3792,00;0,0496
3791,00;0,0496
3790,00;0,0496
3789,00;0,0496
3788,00;0,0496
3787,00;0,0496
3786,00;0,0496
3785,00;0,0496
3784,00;0,0496
3783,00;0,0496
3782,00;0,0495
3781,00;0,0495
3780,00;0,0495
3779,00;0,0495
3778,00;0,0495
3777,00;0,0495
3776,00;0,0495
3775,00;0,0495
3774,00;0,0495
3773,00;0,0495
3772,00;0,0495
3771,00;0,0495
3770,00;0,0495
3769,00;0,0495
3768,00;0,0495
3767,00;0,0495
3766,00;0,0495
3765,00;0,0495
3764,00;0,0495
3763,00;0,0495
3762,00;0,0495
3761,00;0,0495
3760,00;0,0495
3759,00;0,0495
3758,00;0,0495
3757,00;0,0495
3756,00;0,0495
3755,00;0,0495
3754,00;0,0495
3753,00;0,0495
3752,00;0,0495
3751,00;0,0495
3750,00;0,0495
3749,00;0,0495
3748,00;0,0495
3747,00;0,0495
3746,00;0,0495
3745,00;0,0495
3744,00;0,0495
3743,00;0,0495
3742,00;0,0495
3741,00;0,0495
3740,00;0,0495
3739,00;0,0495
3738,00;0,0495
3737,00;0,0494
3736,00;0,0494
3735,00;0,0494
3734,00;0,0494
3733,00;0,0494
3732,00;0,0494
3731,00;0,0494
3730,00;0,0494
3729,00;0,0494
3728,00;0,0494
3727,00;0,0494
3726,00;0,0494
3725,00;0,0494
3724,00;0,0494
3723,00;0,0494
3722,00;0,0494
3721,00;0,0494
3720,00;0,0494
3719,00;0,0494
3718,00;0,0494
3717,00;0,0493
3716,00;0,0493
3715,00;0,0493
3714,00;0,0493
3713,00;0,0493
3712,00;0,0493
3711,00;0,0493
3710,00;0,0493
3709,00;0,0493
3708,00;0,0493
3707,00;0,0493
3706,00;0,0493
3705,00;0,0493
3704,00;0,0493
3703,00;0,0493
3702,00;0,0493
3701,00;0,0493
3700,00;0,0493
3699,00;0,0493
3698,00;0,0492
3697,00;0,0492
3696,00;0,0492
3695,00;0,0492
3694,00;0,0492
3693,00;0,0493
3692,00;0,0493
3691,00;0,0493
3690,00;0,0493
3689,00;0,0493
3688,00;0,0493
3687,00;0,0493
3686,00;0,0493
3685,00;0,0493
3684,00;0,0493
3683,00;0,0493
3682,00;0,0493
3681,00;0,0493
3680,00;0,0493
3679,00;0,0493
3678,00;0,0493
3677,00;0,0493
3676,00;0,0493
3675,00;0,0493
3674,00;0,0493
3673,00;0,0493
3672,00;0,0493
3671,00;0,0493
3670,00;0,0493
3669,00;0,0493
3668,00;0,0493
3667,00;0,0493
3666,00;0,0493
3665,00;0,0493
3664,00;0,0493
3663,00;0,0493
3662,00;0,0493
3661,00;0,0493
3660,00;0,0493
3659,00;0,0493
3658,00;0,0493
3657,00;0,0493
3656,00;0,0493
3655,00;0,0493
3654,00;0,0493
3653,00;0,0493
3652,00;0,0493
3651,00;0,0493
3650,00;0,0493
3649,00;0,0493
3648,00;0,0493
3647,00;0,0493
3646,00;0,0493
3645,00;0,0493
3644,00;0,0493
3643,00;0,0493
3642,00;0,0493
3641,00;0,0493
3640,00;0,0492
3639,00;0,0492
3638,00;0,0492
3637,00;0,0493
3636,00;0,0493
3635,00;0,0493
3634,00;0,0493
3633,00;0,0493
3632,00;0,0492
3631,00;0,0493
3630,00;0,0493
3629,00;0,0493
3628,00;0,0493
3627,00;0,0493
3626,00;0,0493
3625,00;0,0493
3624,00;0,0493
3623,00;0,0493
3622,00;0,0493
3621,00;0,0493
3620,00;0,0493
3619,00;0,0493
3618,00;0,0493
3617,00;0,0493
3616,00;0,0493
3615,00;0,0493
3614,00;0,0493
3613,00;0,0493
3612,00;0,0493
3611,00;0,0493
3610,00;0,0494
3609,00;0,0494
3608,00;0,0494
3607,00;0,0494
3606,00;0,0494
3605,00;0,0494
3604,00;0,0494
3603,00;0,0494
3602,00;0,0494
3601,00;0,0494
3600,00;0,0494
3599,00;0,0494
3598,00;0,0494
3597,00;0,0494
3596,00;0,0495
3595,00;0,0495
3594,00;0,0495
3593,00;0,0495
3592,00;0,0495
3591,00;0,0495
3590,00;0,0495
3589,00;0,0495
3588,00;0,0496
3587,00;0,0496
3586,00;0,0496
3585,00;0,0496
3584,00;0,0496
3583,00;0,0496
3582,00;0,0496
3581,00;0,0496
3580,00;0,0496
3579,00;0,0496
3578,00;0,0496
3577,00;0,0496
3576,00;0,0496
3575,00;0,0496
3574,00;0,0496
3573,00;0,0496
3572,00;0,0497
3571,00;0,0497
3570,00;0,0497
3569,00;0,0497
3568,00;0,0497
3567,00;0,0497
3566,00;0,0497
3565,00;0,0497
3564,00;0,0497
3563,00;0,0498
3562,00;0,0498
3561,00;0,0498
3560,00;0,0498
3559,00;0,0498
3558,00;0,0498
3557,00;0,0498
3556,00;0,0498
3555,00;0,0499
3554,00;0,0499
3553,00;0,0499
3552,00;0,0499
3551,00;0,0499
3550,00;0,0499
3549,00;0,0499
3548,00;0,0499
3547,00;0,0500
3546,00;0,0500
3545,00;0,0500
3544,00;0,0500
3543,00;0,0500
3542,00;0,0500
3541,00;0,0500
3540,00;0,0500
3539,00;0,0501
3538,00;0,0501
3537,00;0,0501
3536,00;0,0501
3535,00;0,0501
3534,00;0,0501
3533,00;0,0501
3532,00;0,0501
3531,00;0,0501
3530,00;0,0502
3529,00;0,0502
3528,00;0,0502
3527,00;0,0502
3526,00;0,0502
3525,00;0,0502
3524,00;0,0502
3523,00;0,0502
3522,00;0,0503
3521,00;0,0503
3520,00;0,0503
3519,00;0,0503
3518,00;0,0503
3517,00;0,0503
3516,00;0,0503
3515,00;0,0503
3514,00;0,0504
3513,00;0,0504
3512,00;0,0504
3511,00;0,0504
3510,00;0,0504
3509,00;0,0504
3508,00;0,0504
3507,00;0,0504
3506,00;0,0505
3505,00;0,0505
3504,00;0,0505
3503,00;0,0505
3502,00;0,0505
3501,00;0,0505
3500,00;0,0505
3499,00;0,0505
3498,00;0,0505
3497,00;0,0505
3496,00;0,0506
3495,00;0,0506
3494,00;0,0506
3493,00;0,0506
3492,00;0,0506
3491,00;0,0506
3490,00;0,0506
3489,00;0,0506
3488,00;0,0506
3487,00;0,0506
3486,00;0,0506
3485,00;0,0506
3484,00;0,0506
3483,00;0,0507
3482,00;0,0507
3481,00;0,0507
3480,00;0,0507
3479,00;0,0507
3478,00;0,0507
3477,00;0,0507
3476,00;0,0507
3475,00;0,0507
3474,00;0,0508
3473,00;0,0508
3472,00;0,0508
3471,00;0,0508
3470,00;0,0508
3469,00;0,0508
3468,00;0,0508
3467,00;0,0508
3466,00;0,0508
3465,00;0,0508
3464,00;0,0509
3463,00;0,0509
3462,00;0,0509
3461,00;0,0509
3460,00;0,0509
3459,00;0,0509
3458,00;0,0509
3457,00;0,0509
3456,00;0,0509
3455,00;0,0509
3454,00;0,0510
3453,00;0,0510
3452,00;0,0510
3451,00;0,0510
3450,00;0,0510
3449,00;0,0510
3448,00;0,0510
3447,00;0,0510
3446,00;0,0510
3445,00;0,0510
3444,00;0,0510
3443,00;0,0511
3442,00;0,0511
3441,00;0,0511
3440,00;0,0511
3439,00;0,0511
3438,00;0,0511
3437,00;0,0511
3436,00;0,0511
3435,00;0,0511
3434,00;0,0511
3433,00;0,0511
3432,00;0,0512
3431,00;0,0512
3430,00;0,0512
3429,00;0,0512
3428,00;0,0512
3427,00;0,0512
3426,00;0,0512
3425,00;0,0512
3424,00;0,0512
3423,00;0,0512
3422,00;0,0512
3421,00;0,0512
3420,00;0,0513
3419,00;0,0513
3418,00;0,0513
3417,00;0,0513
3416,00;0,0513
3415,00;0,0513
3414,00;0,0513
3413,00;0,0513
3412,00;0,0513
3411,00;0,0513
3410,00;0,0513
3409,00;0,0514
3408,00;0,0514
3407,00;0,0514
3406,00;0,0514
3405,00;0,0514
3404,00;0,0514
3403,00;0,0514
3402,00;0,0514
3401,00;0,0514
3400,00;0,0514
3399,00;0,0514
3398,00;0,0514
3397,00;0,0515
3396,00;0,0515
3395,00;0,0514
3394,00;0,0514
3393,00;0,0514
3392,00;0,0515
3391,00;0,0515
3390,00;0,0515
3389,00;0,0515
3388,00;0,0516
3387,00;0,0516
3386,00;0,0516
3385,00;0,0516
3384,00;0,0516
3383,00;0,0516
3382,00;0,0516
3381,00;0,0516
3380,00;0,0516
3379,00;0,0516
3378,00;0,0516
3377,00;0,0516
3376,00;0,0516
3375,00;0,0516
3374,00;0,0516
3373,00;0,0516
3372,00;0,0516
3371,00;0,0516
3370,00;0,0516
3369,00;0,0516
3368,00;0,0516
3367,00;0,0517
3366,00;0,0517
3365,00;0,0517
3364,00;0,0517
3363,00;0,0517
3362,00;0,0517
3361,00;0,0517
3360,00;0,0517
3359,00;0,0517
3358,00;0,0517
3357,00;0,0517
3356,00;0,0517
3355,00;0,0517
3354,00;0,0517
3353,00;0,0517
3352,00;0,0517
3351,00;0,0517
3350,00;0,0517
3349,00;0,0518
3348,00;0,0518
3347,00;0,0518
3346,00;0,0518
3345,00;0,0518
3344,00;0,0518
3343,00;0,0518
3342,00;0,0518
3341,00;0,0518
3340,00;0,0518
3339,00;0,0518
3338,00;0,0518
3337,00;0,0518
3336,00;0,0518
3335,00;0,0518
3334,00;0,0518
3333,00;0,0519
3332,00;0,0519
3331,00;0,0519
3330,00;0,0519
3329,00;0,0519
3328,00;0,0519
3327,00;0,0519
3326,00;0,0519
3325,00;0,0519
3324,00;0,0519
3323,00;0,0519
3322,00;0,0519
3321,00;0,0519
3320,00;0,0519
3319,00;0,0519
3318,00;0,0519
3317,00;0,0520
3316,00;0,0520
3315,00;0,0520
3314,00;0,0520
3313,00;0,0520
3312,00;0,0520
3311,00;0,0520
3310,00;0,0520
3309,00;0,0519
3308,00;0,0519
3307,00;0,0519
3306,00;0,0519
3305,00;0,0519
3304,00;0,0519
3303,00;0,0520
3302,00;0,0520
3301,00;0,0520
3300,00;0,0520
3299,00;0,0520
3298,00;0,0520
3297,00;0,0520
3296,00;0,0520
3295,00;0,0520
3294,00;0,0520
3293,00;0,0520
3292,00;0,0520
3291,00;0,0520
3290,00;0,0520
3289,00;0,0520
3288,00;0,0521
3287,00;0,0521
3286,00;0,0521
3285,00;0,0521
3284,00;0,0521
3283,00;0,0521
3282,00;0,0520
3281,00;0,0520
3280,00;0,0521
3279,00;0,0521
3278,00;0,0521
3277,00;0,0521
3276,00;0,0521
3275,00;0,0520
3274,00;0,0520
3273,00;0,0520
3272,00;0,0520
3271,00;0,0520
3270,00;0,0521
3269,00;0,0521
3268,00;0,0521
3267,00;0,0521
3266,00;0,0521
3265,00;0,0521
3264,00;0,0521
3263,00;0,0521
3262,00;0,0521
3261,00;0,0521
3260,00;0,0521
3259,00;0,0521
3258,00;0,0521
3257,00;0,0521
3256,00;0,0521
3255,00;0,0521
3254,00;0,0521
3253,00;0,0521
3252,00;0,0521
3251,00;0,0521
3250,00;0,0521
3249,00;0,0521
3248,00;0,0521
3247,00;0,0521
3246,00;0,0522
3245,00;0,0522
3244,00;0,0522
3243,00;0,0522
3242,00;0,0522
3241,00;0,0522
3240,00;0,0522
3239,00;0,0522
3238,00;0,0522
3237,00;0,0522
3236,00;0,0522
3235,00;0,0522
3234,00;0,0522
3233,00;0,0522
3232,00;0,0522
3231,00;0,0522
3230,00;0,0522
3229,00;0,0522
3228,00;0,0522
3227,00;0,0522
3226,00;0,0522
3225,00;0,0522
3224,00;0,0522
3223,00;0,0523
3222,00;0,0523
3221,00;0,0523
3220,00;0,0523
3219,00;0,0523
3218,00;0,0523
3217,00;0,0523
3216,00;0,0523
3215,00;0,0523
3214,00;0,0523
3213,00;0,0523
3212,00;0,0523
3211,00;0,0523
3210,00;0,0523
3209,00;0,0523
3208,00;0,0523
3207,00;0,0523
3206,00;0,0523
3205,00;0,0523
3204,00;0,0523
3203,00;0,0524
3202,00;0,0524
3201,00;0,0524
3200,00;0,0524
3199,00;0,0524
3198,00;0,0524
3197,00;0,0524
3196,00;0,0524
3195,00;0,0524
3194,00;0,0524
3193,00;0,0524
3192,00;0,0524
3191,00;0,0524
3190,00;0,0524
3189,00;0,0524
3188,00;0,0524
3187,00;0,0524
3186,00;0,0524
3185,00;0,0524
3184,00;0,0524
3183,00;0,0524
3182,00;0,0524
3181,00;0,0524
3180,00;0,0524
3179,00;0,0524
3178,00;0,0524
3177,00;0,0524
3176,00;0,0524
3175,00;0,0524
3174,00;0,0524
3173,00;0,0525
3172,00;0,0525
3171,00;0,0525
3170,00;0,0525
3169,00;0,0525
3168,00;0,0525
3167,00;0,0525
3166,00;0,0525
3165,00;0,0525
3164,00;0,0525
3163,00;0,0525
3162,00;0,0525
3161,00;0,0525
3160,00;0,0525
3159,00;0,0525
3158,00;0,0525
3157,00;0,0525
3156,00;0,0525
3155,00;0,0525
3154,00;0,0524
3153,00;0,0524
3152,00;0,0524
3151,00;0,0524
3150,00;0,0525
3149,00;0,0525
3148,00;0,0525
3147,00;0,0525
3146,00;0,0525
3145,00;0,0525
3144,00;0,0525
3143,00;0,0525
3142,00;0,0525
3141,00;0,0525
3140,00;0,0525
3139,00;0,0525
3138,00;0,0525
3137,00;0,0525
3136,00;0,0525
3135,00;0,0525
3134,00;0,0525
3133,00;0,0525
3132,00;0,0525
3131,00;0,0525
3130,00;0,0525
3129,00;0,0525
3128,00;0,0525
3127,00;0,0525
3126,00;0,0525
3125,00;0,0525
3124,00;0,0525
3123,00;0,0525
3122,00;0,0525
3121,00;0,0525
3120,00;0,0525
3119,00;0,0525
3118,00;0,0525
3117,00;0,0525
3116,00;0,0525
3115,00;0,0525
3114,00;0,0525
3113,00;0,0526
3112,00;0,0526
3111,00;0,0526
3110,00;0,0526
3109,00;0,0526
3108,00;0,0526
3107,00;0,0526
3106,00;0,0526
3105,00;0,0526
3104,00;0,0526
3103,00;0,0526
3102,00;0,0526
3101,00;0,0526
3100,00;0,0526
3099,00;0,0526
3098,00;0,0526
3097,00;0,0526
3096,00;0,0527
3095,00;0,0527
3094,00;0,0527
3093,00;0,0526
3092,00;0,0526
3091,00;0,0526
3090,00;0,0526
3089,00;0,0526
3088,00;0,0526
3087,00;0,0526
3086,00;0,0526
3085,00;0,0526
3084,00;0,0526
3083,00;0,0526
3082,00;0,0526
3081,00;0,0526
3080,00;0,0526
3079,00;0,0526
3078,00;0,0526
3077,00;0,0526
3076,00;0,0527
3075,00;0,0527
3074,00;0,0527
3073,00;0,0527
3072,00;0,0527
3071,00;0,0527
3070,00;0,0527
3069,00;0,0526
3068,00;0,0526
3067,00;0,0527
3066,00;0,0527
3065,00;0,0527
3064,00;0,0527
3063,00;0,0527
3062,00;0,0527
3061,00;0,0527
3060,00;0,0527
3059,00;0,0527
3058,00;0,0527
3057,00;0,0527
3056,00;0,0527
3055,00;0,0527
3054,00;0,0527
3053,00;0,0527
3052,00;0,0527
3051,00;0,0527
3050,00;0,0527
3049,00;0,0527
3048,00;0,0527
3047,00;0,0527
3046,00;0,0526
3045,00;0,0526
3044,00;0,0526
3043,00;0,0526
3042,00;0,0526
3041,00;0,0526
3040,00;0,0526
3039,00;0,0527
3038,00;0,0527
3037,00;0,0526
3036,00;0,0526
3035,00;0,0526
3034,00;0,0526
3033,00;0,0527
3032,00;0,0527
3031,00;0,0527
3030,00;0,0527
3029,00;0,0527
3028,00;0,0526
3027,00;0,0526
3026,00;0,0526
3025,00;0,0526
3024,00;0,0526
3023,00;0,0526
3022,00;0,0526
3021,00;0,0526
3020,00;0,0526
3019,00;0,0526
3018,00;0,0525
3017,00;0,0525
3016,00;0,0525
3015,00;0,0525
3014,00;0,0525
3013,00;0,0525
3012,00;0,0526
3011,00;0,0526
3010,00;0,0527
3009,00;0,0527
3008,00;0,0527
3007,00;0,0528
3006,00;0,0528
3005,00;0,0528
3004,00;0,0528
3003,00;0,0528
3002,00;0,0528
3001,00;0,0528
3000,00;0,0528
2999,00;0,0528
2998,00;0,0528
2997,00;0,0528
2996,00;0,0529
2995,00;0,0529
2994,00;0,0529
2993,00;0,0529
2992,00;0,0530
2991,00;0,0530
2990,00;0,0530
2989,00;0,0530
2988,00;0,0531
2987,00;0,0531
2986,00;0,0531
2985,00;0,0532
2984,00;0,0532
2983,00;0,0532
2982,00;0,0533
2981,00;0,0533
2980,00;0,0533
2979,00;0,0533
2978,00;0,0533
2977,00;0,0533
2976,00;0,0532
2975,00;0,0532
2974,00;0,0532
2973,00;0,0533
2972,00;0,0533
2971,00;0,0533
2970,00;0,0533
2969,00;0,0533
2968,00;0,0532
2967,00;0,0532
2966,00;0,0532
2965,00;0,0531
2964,00;0,0531
2963,00;0,0531
2962,00;0,0531
2961,00;0,0531
2960,00;0,0531
2959,00;0,0532
2958,00;0,0532
2957,00;0,0533
2956,00;0,0533
2955,00;0,0533
2954,00;0,0533
2953,00;0,0533
2952,00;0,0533
2951,00;0,0534
2950,00;0,0534
2949,00;0,0534
2948,00;0,0534
2947,00;0,0533
2946,00;0,0533
2945,00;0,0533
2944,00;0,0533
2943,00;0,0533
2942,00;0,0533
2941,00;0,0533
2940,00;0,0533
2939,00;0,0533
2938,00;0,0532
2937,00;0,0531
2936,00;0,0531
2935,00;0,0530
2934,00;0,0529
2933,00;0,0529
2932,00;0,0528
2931,00;0,0527
2930,00;0,0527
2929,00;0,0527
2928,00;0,0527
2927,00;0,0527
2926,00;0,0527
2925,00;0,0527
2924,00;0,0527
2923,00;0,0527
2922,00;0,0527
2921,00;0,0527
2920,00;0,0528
2919,00;0,0528
2918,00;0,0528
2917,00;0,0529
2916,00;0,0529
2915,00;0,0530
2914,00;0,0531
2913,00;0,0531
2912,00;0,0532
2911,00;0,0532
2910,00;0,0533
2909,00;0,0533
2908,00;0,0534
2907,00;0,0534
2906,00;0,0534
2905,00;0,0534
2904,00;0,0535
2903,00;0,0535
2902,00;0,0535
2901,00;0,0535
2900,00;0,0535
2899,00;0,0535
2898,00;0,0535
2897,00;0,0534
2896,00;0,0535
2895,00;0,0535
2894,00;0,0536
2893,00;0,0536
2892,00;0,0536
2891,00;0,0537
2890,00;0,0537
2889,00;0,0537
2888,00;0,0537
2887,00;0,0537
2886,00;0,0537
2885,00;0,0537
2884,00;0,0537
2883,00;0,0537
2882,00;0,0537
2881,00;0,0537
2880,00;0,0537
2879,00;0,0537
2878,00;0,0536
2877,00;0,0536
2876,00;0,0536
2875,00;0,0535
2874,00;0,0535
2873,00;0,0535
2872,00;0,0535
2871,00;0,0535
2870,00;0,0535
2869,00;0,0536
2868,00;0,0536
2867,00;0,0536
2866,00;0,0536
2865,00;0,0535
2864,00;0,0535
2863,00;0,0535
2862,00;0,0534
2861,00;0,0533
2860,00;0,0533
2859,00;0,0532
2858,00;0,0531
2857,00;0,0531
2856,00;0,0531
2855,00;0,0531
2854,00;0,0531
2853,00;0,0530
2852,00;0,0530
2851,00;0,0530
2850,00;0,0531
2849,00;0,0531
2848,00;0,0532
2847,00;0,0533
2846,00;0,0533
2845,00;0,0534
2844,00;0,0534
2843,00;0,0535
2842,00;0,0535
2841,00;0,0534
2840,00;0,0534
2839,00;0,0534
2838,00;0,0534
2837,00;0,0535
2836,00;0,0535
2835,00;0,0535
2834,00;0,0535
2833,00;0,0535
2832,00;0,0535
2831,00;0,0535
2830,00;0,0536
2829,00;0,0536
2828,00;0,0536
2827,00;0,0536
2826,00;0,0535
2825,00;0,0535
2824,00;0,0535
2823,00;0,0535
2822,00;0,0534
2821,00;0,0534
2820,00;0,0534
2819,00;0,0535
2818,00;0,0535
2817,00;0,0535
2816,00;0,0534
2815,00;0,0534
2814,00;0,0534
2813,00;0,0534
2812,00;0,0534
2811,00;0,0534
2810,00;0,0534
2809,00;0,0534
2808,00;0,0534
2807,00;0,0534
2806,00;0,0534
2805,00;0,0534
2804,00;0,0534
2803,00;0,0534
2802,00;0,0534
2801,00;0,0534
2800,00;0,0534
2799,00;0,0533
2798,00;0,0533
2797,00;0,0533
2796,00;0,0533
2795,00;0,0533
2794,00;0,0533
2793,00;0,0533
2792,00;0,0533
2791,00;0,0533
2790,00;0,0533
2789,00;0,0533
2788,00;0,0533
2787,00;0,0533
2786,00;0,0533
2785,00;0,0533
2784,00;0,0533
2783,00;0,0533
2782,00;0,0533
2781,00;0,0533
2780,00;0,0533
2779,00;0,0533
2778,00;0,0533
2777,00;0,0533
2776,00;0,0533
2775,00;0,0533
2774,00;0,0533
2773,00;0,0533
2772,00;0,0533
2771,00;0,0533
2770,00;0,0533
2769,00;0,0533
2768,00;0,0532
2767,00;0,0532
2766,00;0,0532
2765,00;0,0532
2764,00;0,0532
2763,00;0,0532
2762,00;0,0532
2761,00;0,0532
2760,00;0,0532
2759,00;0,0532
2758,00;0,0532
2757,00;0,0532
2756,00;0,0532
2755,00;0,0532
2754,00;0,0532
2753,00;0,0532
2752,00;0,0532
2751,00;0,0532
2750,00;0,0532
2749,00;0,0532
2748,00;0,0532
2747,00;0,0532
2746,00;0,0532
2745,00;0,0532
2744,00;0,0532
2743,00;0,0532
2742,00;0,0532
2741,00;0,0532
2740,00;0,0532
2739,00;0,0532
2738,00;0,0532
2737,00;0,0532
2736,00;0,0532
2735,00;0,0532
2734,00;0,0532
2733,00;0,0532
2732,00;0,0532
2731,00;0,0532
2730,00;0,0532
2729,00;0,0532
2728,00;0,0532
2727,00;0,0532
2726,00;0,0532
2725,00;0,0532
2724,00;0,0532
2723,00;0,0532
2722,00;0,0532
2721,00;0,0532
2720,00;0,0532
2719,00;0,0532
2718,00;0,0532
2717,00;0,0532
2716,00;0,0532
2715,00;0,0531
2714,00;0,0531
2713,00;0,0531
2712,00;0,0531
2711,00;0,0531
2710,00;0,0531
2709,00;0,0531
2708,00;0,0531
2707,00;0,0531
2706,00;0,0531
2705,00;0,0531
2704,00;0,0531
2703,00;0,0531
2702,00;0,0531
2701,00;0,0531
2700,00;0,0531
2699,00;0,0531
2698,00;0,0531
2697,00;0,0531
2696,00;0,0531
2695,00;0,0531
2694,00;0,0531
2693,00;0,0531
2692,00;0,0531
2691,00;0,0531
2690,00;0,0531
2689,00;0,0531
2688,00;0,0531
2687,00;0,0531
2686,00;0,0531
2685,00;0,0531
2684,00;0,0531
2683,00;0,0531
2682,00;0,0531
2681,00;0,0531
2680,00;0,0531
2679,00;0,0531
2678,00;0,0530
2677,00;0,0530
2676,00;0,0530
2675,00;0,0530
