Создан как новый массив данных;Образец 008 полученный BalashovM Дата пятница, марта 03 2023
cm-1;A
4000,00;0,0108
3999,00;0,0108
3998,00;0,0108
3997,00;0,0108
3996,00;0,0108
3995,00;0,0108
3994,00;0,0108
3993,00;0,0108
3992,00;0,0108
3991,00;0,0108
3990,00;0,0108
3989,00;0,0108
3988,00;0,0108
3987,00;0,0108
3986,00;0,0108
3985,00;0,0108
3984,00;0,0108
3983,00;0,0108
3982,00;0,0108
3981,00;0,0108
3980,00;0,0108
3979,00;0,0108
3978,00;0,0108
3977,00;0,0108
3976,00;0,0108
3975,00;0,0108
3974,00;0,0108
3973,00;0,0108
3972,00;0,0108
3971,00;0,0108
3970,00;0,0108
3969,00;0,0108
3968,00;0,0108
3967,00;0,0108
3966,00;0,0108
3965,00;0,0108
3964,00;0,0108
3963,00;0,0108
3962,00;0,0108
3961,00;0,0108
3960,00;0,0108
3959,00;0,0108
3958,00;0,0108
3957,00;0,0108
3956,00;0,0108
3955,00;0,0108
3954,00;0,0108
3953,00;0,0108
3952,00;0,0108
3951,00;0,0108
3950,00;0,0108
3949,00;0,0108
3948,00;0,0108
3947,00;0,0108
3946,00;0,0109
3945,00;0,0109
3944,00;0,0109
3943,00;0,0109
3942,00;0,0109
3941,00;0,0109
3940,00;0,0109
3939,00;0,0109
3938,00;0,0109
3937,00;0,0109
3936,00;0,0109
3935,00;0,0109
3934,00;0,0109
3933,00;0,0109
3932,00;0,0109
3931,00;0,0109
3930,00;0,0109
3929,00;0,0109
3928,00;0,0109
3927,00;0,0109
3926,00;0,0109
3925,00;0,0109
3924,00;0,0109
3923,00;0,0109
3922,00;0,0109
3921,00;0,0109
3920,00;0,0109
3919,00;0,0108
3918,00;0,0108
3917,00;0,0109
3916,00;0,0109
3915,00;0,0109
3914,00;0,0109
3913,00;0,0109
3912,00;0,0109
3911,00;0,0109
3910,00;0,0109
3909,00;0,0109
3908,00;0,0109
3907,00;0,0109
3906,00;0,0109
3905,00;0,0109
3904,00;0,0109
3903,00;0,0109
3902,00;0,0108
3901,00;0,0108
3900,00;0,0108
3899,00;0,0108
3898,00;0,0108
3897,00;0,0108
3896,00;0,0108
3895,00;0,0108
3894,00;0,0108
3893,00;0,0108
3892,00;0,0108
3891,00;0,0108
3890,00;0,0108
3889,00;0,0108
3888,00;0,0108
3887,00;0,0108
3886,00;0,0108
3885,00;0,0108
3884,00;0,0108
3883,00;0,0108
3882,00;0,0108
3881,00;0,0108
3880,00;0,0108
3879,00;0,0108
3878,00;0,0108
3877,00;0,0108
3876,00;0,0108
3875,00;0,0108
3874,00;0,0108
3873,00;0,0108
3872,00;0,0108
3871,00;0,0108
3870,00;0,0108
3869,00;0,0108
3868,00;0,0108
3867,00;0,0108
3866,00;0,0108
3865,00;0,0108
3864,00;0,0108
3863,00;0,0108
3862,00;0,0108
3861,00;0,0108
3860,00;0,0108
3859,00;0,0108
3858,00;0,0108
3857,00;0,0108
3856,00;0,0108
3855,00;0,0108
3854,00;0,0108
3853,00;0,0108
3852,00;0,0108
3851,00;0,0108
3850,00;0,0108
3849,00;0,0108
3848,00;0,0108
3847,00;0,0108
3846,00;0,0108
3845,00;0,0108
3844,00;0,0108
3843,00;0,0108
3842,00;0,0108
3841,00;0,0108
3840,00;0,0108
3839,00;0,0108
3838,00;0,0108
3837,00;0,0108
3836,00;0,0108
3835,00;0,0108
3834,00;0,0108
3833,00;0,0108
3832,00;0,0108
3831,00;0,0108
3830,00;0,0108
3829,00;0,0108
3828,00;0,0108
3827,00;0,0108
3826,00;0,0108
3825,00;0,0108
3824,00;0,0108
3823,00;0,0108
3822,00;0,0108
3821,00;0,0108
3820,00;0,0108
3819,00;0,0108
3818,00;0,0108
3817,00;0,0108
3816,00;0,0108
3815,00;0,0108
3814,00;0,0108
3813,00;0,0108
3812,00;0,0108
3811,00;0,0108
3810,00;0,0108
3809,00;0,0108
3808,00;0,0108
3807,00;0,0108
3806,00;0,0108
3805,00;0,0108
3804,00;0,0108
3803,00;0,0108
3802,00;0,0108
3801,00;0,0108
3800,00;0,0108
3799,00;0,0108
3798,00;0,0108
3797,00;0,0108
3796,00;0,0108
3795,00;0,0108
3794,00;0,0108
3793,00;0,0108
3792,00;0,0108
3791,00;0,0108
3790,00;0,0109
3789,00;0,0109
3788,00;0,0109
3787,00;0,0109
3786,00;0,0109
3785,00;0,0109
3784,00;0,0109
3783,00;0,0108
3782,00;0,0108
3781,00;0,0108
3780,00;0,0108
3779,00;0,0108
3778,00;0,0108
3777,00;0,0108
3776,00;0,0108
3775,00;0,0108
3774,00;0,0108
3773,00;0,0108
3772,00;0,0108
3771,00;0,0108
3770,00;0,0108
3769,00;0,0108
3768,00;0,0108
3767,00;0,0108
3766,00;0,0108
3765,00;0,0108
3764,00;0,0108
3763,00;0,0108
3762,00;0,0108
3761,00;0,0108
3760,00;0,0108
3759,00;0,0108
3758,00;0,0108
3757,00;0,0108
3756,00;0,0108
3755,00;0,0108
3754,00;0,0108
3753,00;0,0108
3752,00;0,0108
3751,00;0,0108
3750,00;0,0108
3749,00;0,0108
3748,00;0,0108
3747,00;0,0108
3746,00;0,0108
3745,00;0,0108
3744,00;0,0108
3743,00;0,0109
3742,00;0,0109
3741,00;0,0109
3740,00;0,0109
3739,00;0,0109
3738,00;0,0109
3737,00;0,0109
3736,00;0,0108
3735,00;0,0108
3734,00;0,0108
3733,00;0,0108
3732,00;0,0108
3731,00;0,0108
3730,00;0,0108
3729,00;0,0108
3728,00;0,0108
3727,00;0,0108
3726,00;0,0108
3725,00;0,0108
3724,00;0,0108
3723,00;0,0108
3722,00;0,0108
3721,00;0,0108
3720,00;0,0108
3719,00;0,0108
3718,00;0,0108
3717,00;0,0108
3716,00;0,0108
3715,00;0,0108
3714,00;0,0108
3713,00;0,0108
3712,00;0,0108
3711,00;0,0108
3710,00;0,0108
3709,00;0,0108
3708,00;0,0108
3707,00;0,0108
3706,00;0,0108
3705,00;0,0108
3704,00;0,0108
3703,00;0,0108
3702,00;0,0108
3701,00;0,0108
3700,00;0,0108
3699,00;0,0108
3698,00;0,0108
3697,00;0,0108
3696,00;0,0108
3695,00;0,0108
3694,00;0,0108
3693,00;0,0109
3692,00;0,0109
3691,00;0,0108
3690,00;0,0109
3689,00;0,0109
3688,00;0,0109
3687,00;0,0109
3686,00;0,0109
3685,00;0,0109
3684,00;0,0109
3683,00;0,0109
3682,00;0,0109
3681,00;0,0109
3680,00;0,0109
3679,00;0,0109
3678,00;0,0109
3677,00;0,0108
3676,00;0,0108
3675,00;0,0108
3674,00;0,0108
3673,00;0,0108
3672,00;0,0109
3671,00;0,0109
3670,00;0,0109
3669,00;0,0109
3668,00;0,0109
3667,00;0,0109
3666,00;0,0110
3665,00;0,0110
3664,00;0,0111
3663,00;0,0111
3662,00;0,0111
3661,00;0,0112
3660,00;0,0112
3659,00;0,0112
3658,00;0,0112
3657,00;0,0112
3656,00;0,0112
3655,00;0,0112
3654,00;0,0112
3653,00;0,0111
3652,00;0,0111
3651,00;0,0112
3650,00;0,0112
3649,00;0,0113
3648,00;0,0113
3647,00;0,0113
3646,00;0,0114
3645,00;0,0114
3644,00;0,0115
3643,00;0,0115
3642,00;0,0116
3641,00;0,0116
3640,00;0,0117
3639,00;0,0117
3638,00;0,0118
3637,00;0,0118
3636,00;0,0118
3635,00;0,0118
3634,00;0,0119
3633,00;0,0119
3632,00;0,0119
3631,00;0,0119
3630,00;0,0119
3629,00;0,0120
3628,00;0,0121
3627,00;0,0121
3626,00;0,0122
3625,00;0,0122
3624,00;0,0123
3623,00;0,0123
3622,00;0,0123
3621,00;0,0123
3620,00;0,0124
3619,00;0,0124
3618,00;0,0125
3617,00;0,0125
3616,00;0,0126
3615,00;0,0126
3614,00;0,0126
3613,00;0,0127
3612,00;0,0128
3611,00;0,0128
3610,00;0,0129
3609,00;0,0129
3608,00;0,0129
3607,00;0,0130
3606,00;0,0130
3605,00;0,0130
3604,00;0,0131
3603,00;0,0132
3602,00;0,0132
3601,00;0,0133
3600,00;0,0134
3599,00;0,0134
3598,00;0,0135
3597,00;0,0135
3596,00;0,0136
3595,00;0,0136
3594,00;0,0137
3593,00;0,0137
3592,00;0,0138
3591,00;0,0138
3590,00;0,0139
3589,00;0,0139
3588,00;0,0139
3587,00;0,0140
3586,00;0,0140
3585,00;0,0140
3584,00;0,0141
3583,00;0,0142
3582,00;0,0142
3581,00;0,0143
3580,00;0,0143
3579,00;0,0143
3578,00;0,0144
3577,00;0,0144
3576,00;0,0145
3575,00;0,0145
3574,00;0,0146
3573,00;0,0146
3572,00;0,0146
3571,00;0,0147
3570,00;0,0147
3569,00;0,0148
3568,00;0,0148
3567,00;0,0148
3566,00;0,0149
3565,00;0,0149
3564,00;0,0150
3563,00;0,0150
3562,00;0,0151
3561,00;0,0152
3560,00;0,0152
3559,00;0,0153
3558,00;0,0153
3557,00;0,0154
3556,00;0,0154
3555,00;0,0155
3554,00;0,0155
3553,00;0,0155
3552,00;0,0156
3551,00;0,0157
3550,00;0,0157
3549,00;0,0157
3548,00;0,0158
3547,00;0,0158
3546,00;0,0159
3545,00;0,0159
3544,00;0,0160
3543,00;0,0160
3542,00;0,0161
3541,00;0,0161
3540,00;0,0161
3539,00;0,0162
3538,00;0,0162
3537,00;0,0162
3536,00;0,0163
3535,00;0,0163
3534,00;0,0164
3533,00;0,0164
3532,00;0,0165
3531,00;0,0165
3530,00;0,0166
3529,00;0,0166
3528,00;0,0167
3527,00;0,0167
3526,00;0,0168
3525,00;0,0168
3524,00;0,0168
3523,00;0,0169
3522,00;0,0169
3521,00;0,0170
3520,00;0,0170
3519,00;0,0170
3518,00;0,0171
3517,00;0,0171
3516,00;0,0172
3515,00;0,0172
3514,00;0,0172
3513,00;0,0173
3512,00;0,0173
3511,00;0,0174
3510,00;0,0174
3509,00;0,0174
3508,00;0,0174
3507,00;0,0175
3506,00;0,0175
3505,00;0,0176
3504,00;0,0176
3503,00;0,0176
3502,00;0,0177
3501,00;0,0177
3500,00;0,0177
3499,00;0,0178
3498,00;0,0178
3497,00;0,0179
3496,00;0,0179
3495,00;0,0179
3494,00;0,0180
3493,00;0,0180
3492,00;0,0180
3491,00;0,0181
3490,00;0,0181
3489,00;0,0181
3488,00;0,0182
3487,00;0,0182
3486,00;0,0182
3485,00;0,0183
3484,00;0,0183
3483,00;0,0184
3482,00;0,0184
3481,00;0,0184
3480,00;0,0185
3479,00;0,0185
3478,00;0,0185
3477,00;0,0186
3476,00;0,0186
3475,00;0,0186
3474,00;0,0187
3473,00;0,0187
3472,00;0,0187
3471,00;0,0188
3470,00;0,0188
3469,00;0,0188
3468,00;0,0189
3467,00;0,0189
3466,00;0,0189
3465,00;0,0190
3464,00;0,0190
3463,00;0,0190
3462,00;0,0191
3461,00;0,0191
3460,00;0,0191
3459,00;0,0192
3458,00;0,0192
3457,00;0,0192
3456,00;0,0193
3455,00;0,0193
3454,00;0,0193
3453,00;0,0193
3452,00;0,0194
3451,00;0,0194
3450,00;0,0194
3449,00;0,0195
3448,00;0,0195
3447,00;0,0195
3446,00;0,0196
3445,00;0,0196
3444,00;0,0196
3443,00;0,0196
3442,00;0,0196
3441,00;0,0197
3440,00;0,0197
3439,00;0,0197
3438,00;0,0197
3437,00;0,0198
3436,00;0,0198
3435,00;0,0198
3434,00;0,0198
3433,00;0,0199
3432,00;0,0199
3431,00;0,0199
3430,00;0,0199
3429,00;0,0200
3428,00;0,0200
3427,00;0,0200
3426,00;0,0201
3425,00;0,0201
3424,00;0,0201
3423,00;0,0201
3422,00;0,0201
3421,00;0,0202
3420,00;0,0202
3419,00;0,0202
3418,00;0,0202
3417,00;0,0203
3416,00;0,0203
3415,00;0,0203
3414,00;0,0203
3413,00;0,0203
3412,00;0,0203
3411,00;0,0204
3410,00;0,0204
3409,00;0,0204
3408,00;0,0204
3407,00;0,0204
3406,00;0,0205
3405,00;0,0205
3404,00;0,0205
3403,00;0,0205
3402,00;0,0205
3401,00;0,0205
3400,00;0,0205
3399,00;0,0205
3398,00;0,0206
3397,00;0,0206
3396,00;0,0206
3395,00;0,0206
3394,00;0,0206
3393,00;0,0206
3392,00;0,0206
3391,00;0,0206
3390,00;0,0207
3389,00;0,0207
3388,00;0,0207
3387,00;0,0208
3386,00;0,0208
3385,00;0,0208
3384,00;0,0208
3383,00;0,0208
3382,00;0,0208
3381,00;0,0208
3380,00;0,0208
3379,00;0,0208
3378,00;0,0208
3377,00;0,0208
3376,00;0,0208
3375,00;0,0208
3374,00;0,0208
3373,00;0,0208
3372,00;0,0208
3371,00;0,0208
3370,00;0,0208
3369,00;0,0208
3368,00;0,0208
3367,00;0,0208
3366,00;0,0209
3365,00;0,0209
3364,00;0,0209
3363,00;0,0209
3362,00;0,0209
3361,00;0,0209
3360,00;0,0209
3359,00;0,0209
3358,00;0,0209
3357,00;0,0210
3356,00;0,0210
3355,00;0,0210
3354,00;0,0210
3353,00;0,0210
3352,00;0,0210
3351,00;0,0209
3350,00;0,0210
3349,00;0,0210
3348,00;0,0210
3347,00;0,0210
3346,00;0,0210
3345,00;0,0210
3344,00;0,0210
3343,00;0,0210
3342,00;0,0210
3341,00;0,0210
3340,00;0,0210
3339,00;0,0210
3338,00;0,0210
3337,00;0,0210
3336,00;0,0210
3335,00;0,0210
3334,00;0,0210
3333,00;0,0210
3332,00;0,0210
3331,00;0,0210
3330,00;0,0210
3329,00;0,0210
3328,00;0,0209
3327,00;0,0209
3326,00;0,0209
3325,00;0,0209
3324,00;0,0209
3323,00;0,0210
3322,00;0,0210
3321,00;0,0210
3320,00;0,0210
3319,00;0,0210
3318,00;0,0210
3317,00;0,0210
3316,00;0,0210
3315,00;0,0209
3314,00;0,0209
3313,00;0,0209
3312,00;0,0209
3311,00;0,0209
3310,00;0,0208
3309,00;0,0207
3308,00;0,0207
3307,00;0,0207
3306,00;0,0207
3305,00;0,0207
3304,00;0,0208
3303,00;0,0208
3302,00;0,0208
3301,00;0,0208
3300,00;0,0208
3299,00;0,0208
3298,00;0,0208
3297,00;0,0207
3296,00;0,0207
3295,00;0,0207
3294,00;0,0207
3293,00;0,0207
3292,00;0,0207
3291,00;0,0207
3290,00;0,0208
3289,00;0,0208
3288,00;0,0208
3287,00;0,0208
3286,00;0,0208
3285,00;0,0208
3284,00;0,0208
3283,00;0,0208
3282,00;0,0208
3281,00;0,0208
3280,00;0,0208
3279,00;0,0208
3278,00;0,0208
3277,00;0,0208
3276,00;0,0208
3275,00;0,0207
3274,00;0,0207
3273,00;0,0206
3272,00;0,0206
3271,00;0,0206
3270,00;0,0206
3269,00;0,0206
3268,00;0,0207
3267,00;0,0207
3266,00;0,0207
3265,00;0,0207
3264,00;0,0207
3263,00;0,0207
3262,00;0,0207
3261,00;0,0207
3260,00;0,0207
3259,00;0,0207
3258,00;0,0206
3257,00;0,0206
3256,00;0,0206
3255,00;0,0206
3254,00;0,0206
3253,00;0,0206
3252,00;0,0206
3251,00;0,0206
3250,00;0,0206
3249,00;0,0205
3248,00;0,0205
3247,00;0,0205
3246,00;0,0205
3245,00;0,0205
3244,00;0,0205
3243,00;0,0205
3242,00;0,0205
3241,00;0,0205
3240,00;0,0205
3239,00;0,0205
3238,00;0,0205
3237,00;0,0205
3236,00;0,0204
3235,00;0,0204
3234,00;0,0204
3233,00;0,0204
3232,00;0,0204
3231,00;0,0204
3230,00;0,0204
3229,00;0,0204
3228,00;0,0204
3227,00;0,0204
3226,00;0,0204
3225,00;0,0204
3224,00;0,0204
3223,00;0,0203
3222,00;0,0203
3221,00;0,0203
3220,00;0,0203
3219,00;0,0203
3218,00;0,0203
3217,00;0,0203
3216,00;0,0203
3215,00;0,0203
3214,00;0,0202
3213,00;0,0202
3212,00;0,0202
3211,00;0,0202
3210,00;0,0202
3209,00;0,0201
3208,00;0,0201
3207,00;0,0201
3206,00;0,0201
3205,00;0,0201
3204,00;0,0201
3203,00;0,0200
3202,00;0,0200
3201,00;0,0200
3200,00;0,0200
3199,00;0,0200
3198,00;0,0199
3197,00;0,0199
3196,00;0,0199
3195,00;0,0199
3194,00;0,0199
3193,00;0,0199
3192,00;0,0199
3191,00;0,0199
3190,00;0,0199
3189,00;0,0199
3188,00;0,0198
3187,00;0,0198
3186,00;0,0198
3185,00;0,0198
3184,00;0,0198
3183,00;0,0197
3182,00;0,0197
3181,00;0,0197
3180,00;0,0197
3179,00;0,0197
3178,00;0,0197
3177,00;0,0196
3176,00;0,0196
3175,00;0,0196
3174,00;0,0196
3173,00;0,0196
3172,00;0,0195
3171,00;0,0195
3170,00;0,0195
3169,00;0,0195
3168,00;0,0194
3167,00;0,0194
3166,00;0,0194
3165,00;0,0194
3164,00;0,0194
3163,00;0,0194
3162,00;0,0194
3161,00;0,0193
3160,00;0,0193
3159,00;0,0193
3158,00;0,0193
3157,00;0,0192
3156,00;0,0192
3155,00;0,0192
3154,00;0,0191
3153,00;0,0191
3152,00;0,0191
3151,00;0,0191
3150,00;0,0191
3149,00;0,0191
3148,00;0,0191
3147,00;0,0191
3146,00;0,0190
3145,00;0,0190
3144,00;0,0190
3143,00;0,0190
3142,00;0,0190
3141,00;0,0189
3140,00;0,0189
3139,00;0,0189
3138,00;0,0189
3137,00;0,0189
3136,00;0,0189
3135,00;0,0188
3134,00;0,0188
3133,00;0,0188
3132,00;0,0188
3131,00;0,0188
3130,00;0,0188
3129,00;0,0187
3128,00;0,0187
3127,00;0,0187
3126,00;0,0187
3125,00;0,0187
3124,00;0,0187
3123,00;0,0186
3122,00;0,0186
3121,00;0,0185
3120,00;0,0185
3119,00;0,0185
3118,00;0,0185
3117,00;0,0185
3116,00;0,0185
3115,00;0,0185
3114,00;0,0185
3113,00;0,0185
3112,00;0,0185
3111,00;0,0185
3110,00;0,0184
3109,00;0,0184
3108,00;0,0184
3107,00;0,0183
3106,00;0,0183
3105,00;0,0183
3104,00;0,0183
3103,00;0,0182
3102,00;0,0182
3101,00;0,0182
3100,00;0,0182
3099,00;0,0182
3098,00;0,0182
3097,00;0,0182
3096,00;0,0182
3095,00;0,0181
3094,00;0,0181
3093,00;0,0181
3092,00;0,0181
3091,00;0,0180
3090,00;0,0180
3089,00;0,0180
3088,00;0,0180
3087,00;0,0179
3086,00;0,0179
3085,00;0,0179
3084,00;0,0179
3083,00;0,0178
3082,00;0,0178
3081,00;0,0178
3080,00;0,0178
3079,00;0,0178
3078,00;0,0178
3077,00;0,0178
3076,00;0,0178
3075,00;0,0177
3074,00;0,0177
3073,00;0,0177
3072,00;0,0177
3071,00;0,0177
3070,00;0,0177
3069,00;0,0176
3068,00;0,0176
3067,00;0,0176
3066,00;0,0176
3065,00;0,0176
3064,00;0,0176
3063,00;0,0175
3062,00;0,0175
3061,00;0,0175
3060,00;0,0175
3059,00;0,0175
3058,00;0,0174
3057,00;0,0174
3056,00;0,0174
3055,00;0,0174
3054,00;0,0174
3053,00;0,0174
3052,00;0,0173
3051,00;0,0173
3050,00;0,0173
3049,00;0,0173
3048,00;0,0173
3047,00;0,0172
3046,00;0,0172
3045,00;0,0172
3044,00;0,0172
3043,00;0,0172
3042,00;0,0172
3041,00;0,0172
3040,00;0,0171
3039,00;0,0171
3038,00;0,0171
3037,00;0,0171
3036,00;0,0171
3035,00;0,0171
3034,00;0,0171
3033,00;0,0171
3032,00;0,0170
3031,00;0,0170
3030,00;0,0170
3029,00;0,0170
3028,00;0,0170
3027,00;0,0170
3026,00;0,0170
3025,00;0,0170
3024,00;0,0170
3023,00;0,0169
3022,00;0,0169
3021,00;0,0169
3020,00;0,0168
3019,00;0,0168
3018,00;0,0168
3017,00;0,0168
3016,00;0,0167
3015,00;0,0167
3014,00;0,0167
3013,00;0,0167
3012,00;0,0167
3011,00;0,0167
3010,00;0,0167
3009,00;0,0167
3008,00;0,0167
3007,00;0,0167
3006,00;0,0167
3005,00;0,0167
3004,00;0,0167
3003,00;0,0167
3002,00;0,0167
3001,00;0,0167
3000,00;0,0167
2999,00;0,0167
2998,00;0,0167
2997,00;0,0167
2996,00;0,0167
2995,00;0,0167
2994,00;0,0167
2993,00;0,0166
2992,00;0,0166
2991,00;0,0166
2990,00;0,0166
2989,00;0,0166
2988,00;0,0166
2987,00;0,0166
2986,00;0,0166
2985,00;0,0166
2984,00;0,0166
2983,00;0,0166
2982,00;0,0166
2981,00;0,0166
2980,00;0,0166
2979,00;0,0165
2978,00;0,0165
2977,00;0,0165
2976,00;0,0165
2975,00;0,0165
2974,00;0,0165
2973,00;0,0165
2972,00;0,0164
2971,00;0,0164
2970,00;0,0163
2969,00;0,0163
2968,00;0,0162
2967,00;0,0162
2966,00;0,0161
2965,00;0,0161
2964,00;0,0160
2963,00;0,0160
2962,00;0,0159
2961,00;0,0159
2960,00;0,0159
2959,00;0,0159
2958,00;0,0159
2957,00;0,0159
2956,00;0,0159
2955,00;0,0159
2954,00;0,0158
2953,00;0,0158
2952,00;0,0158
2951,00;0,0157
2950,00;0,0157
2949,00;0,0157
2948,00;0,0157
2947,00;0,0156
2946,00;0,0156
2945,00;0,0156
2944,00;0,0155
2943,00;0,0155
2942,00;0,0154
2941,00;0,0154
2940,00;0,0153
2939,00;0,0153
2938,00;0,0152
2937,00;0,0151
2936,00;0,0150
2935,00;0,0149
2934,00;0,0148
2933,00;0,0147
2932,00;0,0146
2931,00;0,0145
2930,00;0,0144
2929,00;0,0144
2928,00;0,0143
2927,00;0,0143
2926,00;0,0142
2925,00;0,0142
2924,00;0,0141
2923,00;0,0141
2922,00;0,0141
2921,00;0,0142
2920,00;0,0142
2919,00;0,0143
2918,00;0,0143
2917,00;0,0143
2916,00;0,0144
2915,00;0,0144
2914,00;0,0145
2913,00;0,0146
2912,00;0,0146
2911,00;0,0147
2910,00;0,0147
2909,00;0,0148
2908,00;0,0148
2907,00;0,0149
2906,00;0,0149
2905,00;0,0149
2904,00;0,0150
2903,00;0,0150
2902,00;0,0150
2901,00;0,0150
2900,00;0,0150
2899,00;0,0150
2898,00;0,0150
2897,00;0,0150
2896,00;0,0150
2895,00;0,0150
2894,00;0,0150
2893,00;0,0150
2892,00;0,0150
2891,00;0,0151
2890,00;0,0151
2889,00;0,0151
2888,00;0,0151
2887,00;0,0151
2886,00;0,0151
2885,00;0,0150
2884,00;0,0150
2883,00;0,0150
2882,00;0,0149
2881,00;0,0149
2880,00;0,0149
2879,00;0,0149
2878,00;0,0149
2877,00;0,0149
2876,00;0,0148
2875,00;0,0148
2874,00;0,0147
2873,00;0,0147
2872,00;0,0147
2871,00;0,0147
2870,00;0,0147
2869,00;0,0147
2868,00;0,0146
2867,00;0,0146
2866,00;0,0145
2865,00;0,0145
2864,00;0,0145
2863,00;0,0144
2862,00;0,0144
2861,00;0,0143
2860,00;0,0142
2859,00;0,0141
2858,00;0,0141
2857,00;0,0140
2856,00;0,0139
2855,00;0,0139
2854,00;0,0139
2853,00;0,0138
2852,00;0,0138
2851,00;0,0138
2850,00;0,0139
2849,00;0,0140
2848,00;0,0141
2847,00;0,0142
2846,00;0,0143
2845,00;0,0143
2844,00;0,0144
2843,00;0,0144
2842,00;0,0145
2841,00;0,0145
2840,00;0,0146
2839,00;0,0146
2838,00;0,0146
2837,00;0,0146
2836,00;0,0145
2835,00;0,0146
2834,00;0,0146
2833,00;0,0146
2832,00;0,0146
2831,00;0,0146
2830,00;0,0146
2829,00;0,0146
2828,00;0,0146
2827,00;0,0146
2826,00;0,0146
2825,00;0,0146
2824,00;0,0147
2823,00;0,0147
2822,00;0,0147
2821,00;0,0146
2820,00;0,0146
2819,00;0,0146
2818,00;0,0146
2817,00;0,0146
2816,00;0,0146
2815,00;0,0146
2814,00;0,0145
2813,00;0,0145
2812,00;0,0145
2811,00;0,0145
2810,00;0,0145
2809,00;0,0145
2808,00;0,0145
2807,00;0,0145
2806,00;0,0145
2805,00;0,0145
2804,00;0,0145
2803,00;0,0145
2802,00;0,0145
2801,00;0,0145
2800,00;0,0145
2799,00;0,0144
2798,00;0,0144
2797,00;0,0144
2796,00;0,0144
2795,00;0,0144
2794,00;0,0144
2793,00;0,0144
2792,00;0,0144
2791,00;0,0144
2790,00;0,0144
2789,00;0,0143
2788,00;0,0143
2787,00;0,0143
2786,00;0,0143
2785,00;0,0143
2784,00;0,0143
2783,00;0,0143
2782,00;0,0143
2781,00;0,0143
2780,00;0,0143
2779,00;0,0143
2778,00;0,0143
2777,00;0,0143
2776,00;0,0142
2775,00;0,0142
2774,00;0,0142
2773,00;0,0142
2772,00;0,0142
2771,00;0,0142
2770,00;0,0142
2769,00;0,0142
2768,00;0,0142
2767,00;0,0142
2766,00;0,0142
2765,00;0,0141
2764,00;0,0141
2763,00;0,0141
2762,00;0,0141
2761,00;0,0141
2760,00;0,0141
2759,00;0,0141
2758,00;0,0141
2757,00;0,0141
2756,00;0,0141
2755,00;0,0141
2754,00;0,0141
2753,00;0,0141
2752,00;0,0140
2751,00;0,0140
2750,00;0,0140
2749,00;0,0140
2748,00;0,0140
2747,00;0,0140
2746,00;0,0140
2745,00;0,0140
2744,00;0,0140
2743,00;0,0140
2742,00;0,0140
2741,00;0,0140
2740,00;0,0140
2739,00;0,0139
2738,00;0,0139
2737,00;0,0139
2736,00;0,0139
2735,00;0,0139
2734,00;0,0139
2733,00;0,0139
2732,00;0,0139
2731,00;0,0139
2730,00;0,0139
2729,00;0,0139
2728,00;0,0139
2727,00;0,0139
2726,00;0,0139
2725,00;0,0138
2724,00;0,0138
2723,00;0,0138
2722,00;0,0138
2721,00;0,0138
2720,00;0,0138
2719,00;0,0138
2718,00;0,0138
2717,00;0,0138
2716,00;0,0138
2715,00;0,0138
2714,00;0,0138
2713,00;0,0138
2712,00;0,0138
2711,00;0,0138
2710,00;0,0138
2709,00;0,0137
2708,00;0,0137
2707,00;0,0137
2706,00;0,0137
2705,00;0,0137
2704,00;0,0137
2703,00;0,0137
2702,00;0,0137
2701,00;0,0137
2700,00;0,0137
2699,00;0,0137
2698,00;0,0137
2697,00;0,0137
2696,00;0,0137
2695,00;0,0137
2694,00;0,0136
2693,00;0,0136
2692,00;0,0136
2691,00;0,0136
2690,00;0,0136
2689,00;0,0136
2688,00;0,0136
2687,00;0,0136
2686,00;0,0136
2685,00;0,0136
2684,00;0,0136
2683,00;0,0136
2682,00;0,0137
2681,00;0,0136
2680,00;0,0136
2679,00;0,0136
2678,00;0,0136
2677,00;0,0136
2676,00;0,0136
2675,00;0,0136
